/***********************************************************
* Ocean Resources and Renewable Energy Laboratory
* Version: v1.0 (Released on May 1st, 2021)
* Programmed by: Jessica Nguyen (Email: nvnguyen@umass.edu)
*----------------------------------------------------------
* Project Name:	NREL_VGOSWEC_freedecay_VGM90
* Project Lead:	JD
* Labview Operator:	JD
* Comments:	VGOSWEC scale model with 5.25" diameter cylindrical foundation and three pairs of opposing torsional springs. Model centered in window 2,  193.5 in from the start of the tank; probe positions: probe 1 (staff, front) - 134 in; probe 2 (sonic, alongside) - 193.5 in; probe 3 (staff, behind) - 274.5 in ; probe 4 (sonic, behind) - 332.5 in. Data aquisition specifications: wave start time: 0 s; wave end time: 40 s; delta t: 0.05; ramp time: 3 s; end time delay: 20 s; sampling rate: 2 ms. Kistler force cal factor: 1 V/N (X), 1 V/N (Y), 0.6667 V/N (Z); Kistler moment cal factor: 1 V/Nm (Y), 1 V/Nm (X,Z). Naming convention: T(period)_A(actuator amp)_B(beach distance)_VGM(variable geometry module angle).
* Date and Time:	Wed 16 Jun 2021 05:47:31 PM EDT
***********************************************************/

"Time(s)"	"WP1(m)"	"WP2(m)"	"WP3(m)"	"WP4(m)"	"Roll(deg)"	"Pitch(deg)"	"ForceX(N)"	"ForceY(N)"	"ForceZ(N)"	"MomentX"	"MomentY"	"MomentZ"	
0.00000	-2.04004	-1.96297	-0.47417	-0.44938	-3.60800	-89.73000	0.05715	0.01729	-0.04190	0.00292	-0.02280	-0.00479
0.00200	-2.04004	-1.96297	-0.47417	-0.44938	-3.60800	-89.73000	0.05715	0.01729	-0.04190	0.00292	-0.02280	-0.00479
0.00400	-2.04004	-1.96297	-0.47417	-0.44938	0.00000	0.00000	0.05715	0.01729	-0.04190	0.00292	-0.02280	-0.00479
0.00600	-2.04004	-1.96297	-0.47417	-0.44938	-3.60800	-89.73000	0.05715	0.01729	-0.04190	0.00292	-0.02280	-0.00479
0.00800	-2.04004	-1.96297	-0.47417	-0.44938	-3.51780	-89.73000	0.05715	0.01729	-0.04190	0.00292	-0.02280	-0.00479
0.01000	0.00040	0.00010	0.00068	0.00032	-3.60800	-89.64000	0.05976	-0.00844	0.06755	0.00956	-0.02581	0.00339
0.01200	0.00040	0.00010	0.00068	0.00032	0.00000	0.00000	0.05976	-0.00844	0.06755	0.00956	-0.02581	0.00339
0.01400	0.00040	0.00010	0.00068	0.00032	-3.60800	-89.64000	0.05976	-0.00844	0.06755	0.00956	-0.02581	0.00339
0.01600	0.00040	0.00010	0.00068	0.00032	-3.60800	-89.73000	0.05976	-0.00844	0.06755	0.00956	-0.02581	0.00339
0.01800	-0.00002	0.00084	0.00053	0.00082	-3.60800	-89.73000	0.07817	-0.03107	0.05027	0.01100	-0.02190	0.00195
0.02000	-0.00002	0.00084	0.00053	0.00082	-3.69820	-89.64000	0.07817	-0.03107	0.05027	0.01100	-0.02190	0.00195
0.02200	-0.00002	0.00084	0.00053	0.00082	-3.60800	-89.55000	0.07817	-0.03107	0.05027	0.01100	-0.02190	0.00195
0.02400	-0.00002	0.00084	0.00053	0.00082	-3.69820	-89.55000	0.07817	-0.03107	0.05027	0.01100	-0.02190	0.00195
0.02600	-0.00078	0.00035	0.00036	0.00106	0.00000	0.00000	0.06182	-0.02644	0.09469	0.00967	-0.02951	0.00278
0.02800	-0.00078	0.00035	0.00036	0.00106	-3.69820	-89.73000	0.06182	-0.02644	0.09469	0.00967	-0.02951	0.00278
0.03000	-0.00078	0.00035	0.00036	0.00106	-3.69820	-89.73000	0.06182	-0.02644	0.09469	0.00967	-0.02951	0.00278
0.03200	-0.00078	0.00035	0.00036	0.00106	-3.60800	-89.82000	0.06182	-0.02644	0.09469	0.00967	-0.02951	0.00278
0.03400	-0.00046	0.00076	0.00044	0.00219	-3.51780	-89.82000	0.06408	-0.02912	0.06924	0.01080	-0.03084	0.00350
0.03600	-0.00046	0.00076	0.00044	0.00219	-3.51780	-89.82000	0.06408	-0.02912	0.06924	0.01080	-0.03084	0.00350
0.03800	-0.00046	0.00076	0.00044	0.00219	-3.60800	-89.82000	0.06408	-0.02912	0.06924	0.01080	-0.03084	0.00350
0.04000	-0.00046	0.00076	0.00044	0.00219	0.00000	0.00000	0.06408	-0.02912	0.06924	0.01080	-0.03084	0.00350
0.04200	0.00111	0.00037	0.00067	0.00143	-3.60800	-89.73000	0.08712	-0.04794	0.04950	0.01100	-0.02673	0.00051
0.04400	0.00111	0.00037	0.00067	0.00143	-3.60800	-89.73000	0.08712	-0.04794	0.04950	0.01100	-0.02673	0.00051
0.04600	0.00111	0.00037	0.00067	0.00143	-3.69820	-89.73000	0.08712	-0.04794	0.04950	0.01100	-0.02673	0.00051
0.04800	0.00111	0.00037	0.00067	0.00143	-3.69820	-89.73000	0.08712	-0.04794	0.04950	0.01100	-0.02673	0.00051
0.05000	0.00010	0.00068	0.00044	0.00109	-3.69820	-89.64000	0.05143	-0.03117	0.09083	0.01306	-0.02694	0.00072
0.05200	0.00010	0.00068	0.00044	0.00109	-3.69820	-89.64000	0.05143	-0.03117	0.09083	0.01306	-0.02694	0.00072
0.05400	0.00010	0.00068	0.00044	0.00109	0.00000	0.00000	0.05143	-0.03117	0.09083	0.01306	-0.02694	0.00072
0.05600	0.00010	0.00068	0.00044	0.00109	-3.69820	-89.64000	0.05143	-0.03117	0.09083	0.01306	-0.02694	0.00072
0.05800	-0.00016	0.00057	0.00038	0.00120	-3.69820	-89.73000	0.06027	0.00422	0.07156	0.01820	-0.01717	-0.00195
0.06000	-0.00016	0.00057	0.00038	0.00120	-3.69820	-89.73000	0.06027	0.00422	0.07156	0.01820	-0.01717	-0.00195
0.06200	-0.00016	0.00057	0.00038	0.00120	-3.60800	-89.82000	0.06027	0.00422	0.07156	0.01820	-0.01717	-0.00195
0.06400	-0.00016	0.00057	0.00038	0.00120	-3.60800	-89.64000	0.06027	0.00422	0.07156	0.01820	-0.01717	-0.00195
0.06600	-0.00073	0.00082	0.00049	0.00087	-3.60800	-89.64000	0.08383	-0.03683	0.04981	0.01491	-0.02529	0.00051
0.06800	-0.00073	0.00082	0.00049	0.00087	0.00000	0.00000	0.08383	-0.03683	0.04981	0.01491	-0.02529	0.00051
0.07000	-0.00073	0.00082	0.00049	0.00087	-3.60800	-89.82000	0.08383	-0.03683	0.04981	0.01491	-0.02529	0.00051
0.07200	-0.00073	0.00082	0.00049	0.00087	-3.69820	-89.91000	0.08383	-0.03683	0.04981	0.01491	-0.02529	0.00051
0.07400	0.00144	0.00112	0.00065	0.00135	-3.69820	-89.91000	0.05781	-0.02006	0.07125	0.01316	-0.02344	0.00103
0.07600	0.00144	0.00112	0.00065	0.00135	-3.60800	-89.73000	0.05781	-0.02006	0.07125	0.01316	-0.02344	0.00103
0.07800	0.00144	0.00112	0.00065	0.00135	-3.69820	-89.73000	0.05781	-0.02006	0.07125	0.01316	-0.02344	0.00103
0.08000	0.00144	0.00112	0.00065	0.00135	-3.60800	-89.73000	0.05781	-0.02006	0.07125	0.01316	-0.02344	0.00103
0.08200	-0.00054	0.00046	0.00072	0.00111	0.00000	0.00000	0.07756	-0.00844	0.07433	0.01347	-0.02724	0.00370
0.08400	-0.00054	0.00046	0.00072	0.00111	-3.51780	-89.73000	0.07756	-0.00844	0.07433	0.01347	-0.02724	0.00370
0.08600	-0.00054	0.00046	0.00072	0.00111	-3.60800	-89.73000	0.07756	-0.00844	0.07433	0.01347	-0.02724	0.00370
0.08800	-0.00054	0.00046	0.00072	0.00111	-3.51780	-89.73000	0.07756	-0.00844	0.07433	0.01347	-0.02724	0.00370
0.09000	-0.00039	0.00100	0.00059	0.00101	-3.42760	-89.73000	0.07406	-0.04064	0.02884	0.01265	-0.02334	0.00041
0.09200	-0.00039	0.00100	0.00059	0.00101	-3.51780	-89.82000	0.07406	-0.04064	0.02884	0.01265	-0.02334	0.00041
0.09400	-0.00039	0.00100	0.00059	0.00101	-3.69820	-89.73000	0.07406	-0.04064	0.02884	0.01265	-0.02334	0.00041
0.09600	-0.00039	0.00100	0.00059	0.00101	0.00000	0.00000	0.07406	-0.04064	0.02884	0.01265	-0.02334	0.00041
0.09800	-0.00039	0.00034	0.00043	0.00029	-3.60800	-89.73000	0.05914	-0.01626	0.08328	0.01316	-0.02375	0.00370
0.10000	-0.00039	0.00034	0.00043	0.00029	-3.60800	-89.82000	0.05914	-0.01626	0.08328	0.01316	-0.02375	0.00370
0.10200	-0.00039	0.00034	0.00043	0.00029	-3.60800	-89.73000	0.05914	-0.01626	0.08328	0.01316	-0.02375	0.00370
0.10400	-0.00039	0.00034	0.00043	0.00029	-3.69820	-89.82000	0.05914	-0.01626	0.08328	0.01316	-0.02375	0.00370
0.10600	0.00096	0.00122	0.00020	0.00164	-3.60800	-89.82000	0.05503	-0.01296	0.07557	0.01440	-0.01573	0.00267
0.10800	0.00096	0.00122	0.00020	0.00164	-3.60800	-89.91000	0.05503	-0.01296	0.07557	0.01440	-0.01573	0.00267
0.11000	0.00096	0.00122	0.00020	0.00164	0.00000	0.00000	0.05503	-0.01296	0.07557	0.01440	-0.01573	0.00267
0.11200	0.00096	0.00122	0.00020	0.00164	-3.69820	-90.00000	0.05503	-0.01296	0.07557	0.01440	-0.01573	0.00267
0.11400	-0.00017	0.00044	0.00050	0.00133	-3.51780	-90.09000	0.05945	-0.02901	0.05135	0.01512	-0.01840	0.00062
0.11600	-0.00017	0.00044	0.00050	0.00133	-3.42760	-89.91000	0.05945	-0.02901	0.05135	0.01512	-0.01840	0.00062
0.11800	-0.00017	0.00044	0.00050	0.00133	-3.42760	-89.91000	0.05945	-0.02901	0.05135	0.01512	-0.01840	0.00062
0.12000	-0.00017	0.00044	0.00050	0.00133	-3.51780	-89.82000	0.05945	-0.02901	0.05135	0.01512	-0.01840	0.00062
0.12200	-0.00057	0.00118	0.00053	0.00158	-3.60800	-89.91000	0.06171	-0.00525	0.05984	0.01532	-0.02015	0.00309
0.12400	-0.00057	0.00118	0.00053	0.00158	0.00000	0.00000	0.06171	-0.00525	0.05984	0.01532	-0.02015	0.00309
0.12600	-0.00057	0.00118	0.00053	0.00158	-3.51780	-89.91000	0.06171	-0.00525	0.05984	0.01532	-0.02015	0.00309
0.12800	-0.00057	0.00118	0.00053	0.00158	-3.60800	-89.82000	0.06171	-0.00525	0.05984	0.01532	-0.02015	0.00309
0.13000	-0.00026	0.00032	0.00040	0.00200	-3.51780	-89.91000	0.06315	-0.01420	0.09361	0.01378	-0.02838	0.00247
0.13200	-0.00026	0.00032	0.00040	0.00200	-3.51780	-89.82000	0.06315	-0.01420	0.09361	0.01378	-0.02838	0.00247
0.13400	-0.00026	0.00032	0.00040	0.00200	-3.51780	-89.73000	0.06315	-0.01420	0.09361	0.01378	-0.02838	0.00247
0.13600	-0.00026	0.00032	0.00040	0.00200	-3.60800	-89.82000	0.06315	-0.01420	0.09361	0.01378	-0.02838	0.00247
0.13800	0.00116	0.00140	0.00080	0.00235	0.00000	0.00000	0.10378	-0.02788	0.05243	0.01594	-0.02375	-0.00062
0.14000	0.00116	0.00140	0.00080	0.00235	-3.60800	-89.82000	0.10378	-0.02788	0.05243	0.01594	-0.02375	-0.00062
0.14200	0.00116	0.00140	0.00080	0.00235	-3.60800	-89.73000	0.10378	-0.02788	0.05243	0.01594	-0.02375	-0.00062
0.14400	0.00116	0.00140	0.00080	0.00235	-3.69820	-89.82000	0.10378	-0.02788	0.05243	0.01594	-0.02375	-0.00062
0.14600	-0.00037	0.00048	0.00045	0.00172	-3.60800	-89.73000	0.06964	-0.01656	0.06307	0.01275	-0.02755	-0.00082
0.14800	-0.00037	0.00048	0.00045	0.00172	-3.60800	-89.82000	0.06964	-0.01656	0.06307	0.01275	-0.02755	-0.00082
0.15000	-0.00037	0.00048	0.00045	0.00172	-3.60800	-89.82000	0.06964	-0.01656	0.06307	0.01275	-0.02755	-0.00082
0.15200	-0.00037	0.00048	0.00045	0.00172	0.00000	0.00000	0.06964	-0.01656	0.06307	0.01275	-0.02755	-0.00082
0.15400	-0.00026	0.00115	0.00052	0.00169	-3.51780	-89.82000	0.05832	-0.00730	0.06924	0.01337	-0.02324	0.00257
0.15600	-0.00026	0.00115	0.00052	0.00169	-3.51780	-89.73000	0.05832	-0.00730	0.06924	0.01337	-0.02324	0.00257
0.15800	-0.00026	0.00115	0.00052	0.00169	-3.51780	-89.73000	0.05832	-0.00730	0.06924	0.01337	-0.02324	0.00257
0.16000	-0.00026	0.00115	0.00052	0.00169	-3.51780	-89.82000	0.05832	-0.00730	0.06924	0.01337	-0.02324	0.00257
0.16200	-0.00007	0.00016	0.00054	0.00123	-3.51780	-89.82000	0.08033	-0.02140	0.07356	0.01100	-0.01953	-0.00062
0.16400	-0.00007	0.00016	0.00054	0.00123	-3.69820	-89.82000	0.08033	-0.02140	0.07356	0.01100	-0.01953	-0.00062
0.16600	-0.00007	0.00016	0.00054	0.00123	0.00000	0.00000	0.08033	-0.02140	0.07356	0.01100	-0.01953	-0.00062
0.16800	-0.00007	0.00016	0.00054	0.00123	-3.69820	-89.73000	0.08033	-0.02140	0.07356	0.01100	-0.01953	-0.00062
0.17000	0.00069	0.00088	0.00027	0.00097	-3.69820	-89.73000	0.03723	-0.02161	0.06986	0.01296	-0.01696	0.00494
0.17200	0.00069	0.00088	0.00027	0.00097	-3.60800	-89.64000	0.03723	-0.02161	0.06986	0.01296	-0.01696	0.00494
0.17400	0.00069	0.00088	0.00027	0.00097	-3.60800	-89.64000	0.03723	-0.02161	0.06986	0.01296	-0.01696	0.00494
0.17600	0.00069	0.00088	0.00027	0.00097	-3.69820	-89.64000	0.03723	-0.02161	0.06986	0.01296	-0.01696	0.00494
0.17800	-0.00040	-0.00011	0.00032	0.00145	-3.42760	-89.73000	0.04958	0.00154	0.07387	0.01645	-0.01398	-0.00093
0.18000	-0.00040	-0.00011	0.00032	0.00145	0.00000	0.00000	0.04958	0.00154	0.07387	0.01645	-0.01398	-0.00093
0.18200	-0.00040	-0.00011	0.00032	0.00145	-3.51780	-89.64000	0.04958	0.00154	0.07387	0.01645	-0.01398	-0.00093
0.18400	-0.00040	-0.00011	0.00032	0.00145	-3.51780	-89.64000	0.04958	0.00154	0.07387	0.01645	-0.01398	-0.00093
0.18600	-0.00087	0.00138	0.00072	0.00186	-3.51780	-89.64000	0.07025	-0.01554	0.05536	0.01686	-0.01645	0.00257
0.18800	-0.00087	0.00138	0.00072	0.00186	-3.60800	-89.73000	0.07025	-0.01554	0.05536	0.01686	-0.01645	0.00257
0.19000	-0.00087	0.00138	0.00072	0.00186	-3.69820	-89.73000	0.07025	-0.01554	0.05536	0.01686	-0.01645	0.00257
0.19200	-0.00087	0.00138	0.00072	0.00186	-3.60800	-89.64000	0.07025	-0.01554	0.05536	0.01686	-0.01645	0.00257
0.19400	-0.00000	0.00034	0.00058	0.00101	0.00000	0.00000	0.07406	-0.00679	0.06199	0.01810	-0.02210	0.00411
0.19600	-0.00000	0.00034	0.00058	0.00101	-3.69820	-89.64000	0.07406	-0.00679	0.06199	0.01810	-0.02210	0.00411
0.19800	-0.00000	0.00034	0.00058	0.00101	-3.60800	-89.64000	0.07406	-0.00679	0.06199	0.01810	-0.02210	0.00411
0.20000	-0.00000	0.00034	0.00058	0.00101	-3.51780	-89.55000	0.07406	-0.00679	0.06199	0.01810	-0.02210	0.00411
0.20200	0.00048	0.00166	0.00042	0.00112	-3.51780	-89.55000	0.08537	0.01965	0.07140	0.01697	-0.02961	0.00195
0.20400	0.00048	0.00166	0.00042	0.00112	-3.51780	-89.64000	0.08537	0.01965	0.07140	0.01697	-0.02961	0.00195
0.20600	0.00048	0.00166	0.00042	0.00112	-3.51780	-89.73000	0.08537	0.01965	0.07140	0.01697	-0.02961	0.00195
0.20800	0.00048	0.00166	0.00042	0.00112	0.00000	0.00000	0.08537	0.01965	0.07140	0.01697	-0.02961	0.00195
0.21000	-0.00065	-0.00005	0.00055	0.00146	-3.60800	-89.64000	0.10008	-0.02109	0.07094	0.01470	-0.02971	0.00309
0.21200	-0.00065	-0.00005	0.00055	0.00146	-3.60800	-89.73000	0.10008	-0.02109	0.07094	0.01470	-0.02971	0.00309
0.21400	-0.00065	-0.00005	0.00055	0.00146	-3.69820	-89.64000	0.10008	-0.02109	0.07094	0.01470	-0.02971	0.00309
0.21600	-0.00065	-0.00005	0.00055	0.00146	-3.69820	-89.82000	0.10008	-0.02109	0.07094	0.01470	-0.02971	0.00309
0.21800	-0.00004	0.00146	0.00056	0.00129	-3.69820	-89.82000	0.09391	-0.01368	0.07341	0.01748	-0.02190	0.00165
0.22000	-0.00004	0.00146	0.00056	0.00129	-3.78840	-89.73000	0.09391	-0.01368	0.07341	0.01748	-0.02190	0.00165
0.22200	-0.00004	0.00146	0.00056	0.00129	0.00000	0.00000	0.09391	-0.01368	0.07341	0.01748	-0.02190	0.00165
0.22400	-0.00004	0.00146	0.00056	0.00129	-3.69820	-89.73000	0.09391	-0.01368	0.07341	0.01748	-0.02190	0.00165
0.22600	0.00044	0.00029	0.00030	0.00218	-3.78840	-89.73000	0.06254	-0.01317	0.06909	0.01594	-0.02293	-0.00165
0.22800	0.00044	0.00029	0.00030	0.00218	-3.78840	-89.82000	0.06254	-0.01317	0.06909	0.01594	-0.02293	-0.00165
0.23000	0.00044	0.00029	0.00030	0.00218	-3.60800	-89.82000	0.06254	-0.01317	0.06909	0.01594	-0.02293	-0.00165
0.23200	0.00044	0.00029	0.00030	0.00218	-3.69820	-89.73000	0.06254	-0.01317	0.06909	0.01594	-0.02293	-0.00165
0.23400	0.00017	0.00204	0.00072	0.00237	-3.78840	-89.82000	0.06809	-0.03230	0.06508	0.01707	-0.02365	-0.00123
0.23600	0.00017	0.00204	0.00072	0.00237	0.00000	0.00000	0.06809	-0.03230	0.06508	0.01707	-0.02365	-0.00123
0.23800	0.00017	0.00204	0.00072	0.00237	-3.69820	-89.73000	0.06809	-0.03230	0.06508	0.01707	-0.02365	-0.00123
0.24000	0.00017	0.00204	0.00072	0.00237	-3.69820	-89.73000	0.06809	-0.03230	0.06508	0.01707	-0.02365	-0.00123
0.24200	-0.00018	-0.00002	0.00054	0.00185	-3.69820	-89.73000	0.08321	0.00000	0.08066	0.01985	-0.01953	0.00411
0.24400	-0.00018	-0.00002	0.00054	0.00185	-3.60800	-89.73000	0.08321	0.00000	0.08066	0.01985	-0.01953	0.00411
0.24600	-0.00018	-0.00002	0.00054	0.00185	-3.51780	-89.82000	0.08321	0.00000	0.08066	0.01985	-0.01953	0.00411
0.24800	-0.00018	-0.00002	0.00054	0.00185	-3.60800	-89.82000	0.08321	0.00000	0.08066	0.01985	-0.01953	0.00411
0.25000	-0.00029	0.00157	0.00060	0.00103	0.00000	0.00000	0.04968	0.01677	0.07171	0.02201	-0.02375	0.00185
0.25200	-0.00029	0.00157	0.00060	0.00103	-3.60800	-89.82000	0.04968	0.01677	0.07171	0.02201	-0.02375	0.00185
0.25400	-0.00029	0.00157	0.00060	0.00103	-3.51780	-89.73000	0.04968	0.01677	0.07171	0.02201	-0.02375	0.00185
0.25600	-0.00029	0.00157	0.00060	0.00103	-3.51780	-89.64000	0.04968	0.01677	0.07171	0.02201	-0.02375	0.00185
0.25800	0.00060	0.00007	0.00049	0.00128	-3.51780	-89.64000	0.08856	0.01296	0.05459	0.02283	-0.01799	0.00669
0.26000	0.00060	0.00007	0.00049	0.00128	-3.60800	-89.73000	0.08856	0.01296	0.05459	0.02283	-0.01799	0.00669
0.26200	0.00060	0.00007	0.00049	0.00128	-3.78840	-89.82000	0.08856	0.01296	0.05459	0.02283	-0.01799	0.00669
0.26400	0.00060	0.00007	0.00049	0.00128	0.00000	0.00000	0.08856	0.01296	0.05459	0.02283	-0.01799	0.00669
0.26600	0.00015	0.00134	0.00055	0.00182	-3.78840	-89.82000	0.08249	-0.02243	0.08929	0.01625	-0.02025	-0.00082
0.26800	0.00015	0.00134	0.00055	0.00182	-3.78840	-89.82000	0.08249	-0.02243	0.08929	0.01625	-0.02025	-0.00082
0.27000	0.00015	0.00134	0.00055	0.00182	-3.69820	-89.82000	0.08249	-0.02243	0.08929	0.01625	-0.02025	-0.00082
0.27200	0.00015	0.00134	0.00055	0.00182	-3.69820	-89.82000	0.08249	-0.02243	0.08929	0.01625	-0.02025	-0.00082
0.27400	-0.00037	-0.00010	0.00049	0.00168	-3.60800	-89.82000	0.06069	-0.01286	0.08667	0.01501	-0.02241	0.00319
0.27600	-0.00037	-0.00010	0.00049	0.00168	-3.51780	-89.73000	0.06069	-0.01286	0.08667	0.01501	-0.02241	0.00319
0.27800	-0.00037	-0.00010	0.00049	0.00168	0.00000	0.00000	0.06069	-0.01286	0.08667	0.01501	-0.02241	0.00319
0.28000	-0.00037	-0.00010	0.00049	0.00168	-3.51780	-89.82000	0.06069	-0.01286	0.08667	0.01501	-0.02241	0.00319
0.28200	-0.00052	0.00137	0.00067	0.00168	-3.51780	-89.82000	0.08908	-0.00525	0.06400	0.01913	-0.01522	0.00247
0.28400	-0.00052	0.00137	0.00067	0.00168	-3.51780	-89.73000	0.08908	-0.00525	0.06400	0.01913	-0.01522	0.00247
0.28600	-0.00052	0.00137	0.00067	0.00168	-3.60800	-89.73000	0.08908	-0.00525	0.06400	0.01913	-0.01522	0.00247
0.28800	-0.00052	0.00137	0.00067	0.00168	-3.60800	-89.73000	0.08908	-0.00525	0.06400	0.01913	-0.01522	0.00247
0.29000	0.00098	-0.00039	0.00043	0.00138	-3.78840	-89.73000	0.06871	-0.01204	0.07510	0.02118	-0.01851	0.00566
0.29200	0.00098	-0.00039	0.00043	0.00138	0.00000	0.00000	0.06871	-0.01204	0.07510	0.02118	-0.01851	0.00566
0.29400	0.00098	-0.00039	0.00043	0.00138	-3.60800	-89.73000	0.06871	-0.01204	0.07510	0.02118	-0.01851	0.00566
0.29600	0.00098	-0.00039	0.00043	0.00138	-3.60800	-89.82000	0.06871	-0.01204	0.07510	0.02118	-0.01851	0.00566
0.29800	0.00051	0.00104	0.00059	0.00144	-3.60800	-89.82000	0.05482	0.02068	0.10209	0.02437	-0.01666	0.00545
0.30000	0.00051	0.00104	0.00059	0.00144	-3.60800	-89.73000	0.05482	0.02068	0.10209	0.02437	-0.01666	0.00545
0.30200	0.00051	0.00104	0.00059	0.00144	-3.42760	-89.73000	0.05482	0.02068	0.10209	0.02437	-0.01666	0.00545
0.30400	0.00051	0.00104	0.00059	0.00144	-3.60800	-89.73000	0.05482	0.02068	0.10209	0.02437	-0.01666	0.00545
0.30600	-0.00027	0.00010	0.00066	0.00165	0.00000	0.00000	0.07159	0.00700	0.06770	0.02262	-0.01635	0.00185
0.30800	-0.00027	0.00010	0.00066	0.00165	-3.51780	-89.64000	0.07159	0.00700	0.06770	0.02262	-0.01635	0.00185
0.31000	-0.00027	0.00010	0.00066	0.00165	-3.60800	-89.64000	0.07159	0.00700	0.06770	0.02262	-0.01635	0.00185
0.31200	-0.00027	0.00010	0.00066	0.00165	-3.51780	-89.73000	0.07159	0.00700	0.06770	0.02262	-0.01635	0.00185
0.31400	-0.00009	0.00126	0.00042	0.00201	-3.60800	-89.73000	0.06367	-0.00751	0.07140	0.02365	-0.01923	0.00093
0.31600	-0.00009	0.00126	0.00042	0.00201	-3.69820	-89.73000	0.06367	-0.00751	0.07140	0.02365	-0.01923	0.00093
0.31800	-0.00009	0.00126	0.00042	0.00201	-3.60800	-89.64000	0.06367	-0.00751	0.07140	0.02365	-0.01923	0.00093
0.32000	-0.00009	0.00126	0.00042	0.00201	0.00000	0.00000	0.06367	-0.00751	0.07140	0.02365	-0.01923	0.00093
0.32200	0.00107	0.00007	0.00071	0.00204	-3.42760	-89.73000	0.06747	0.03632	0.08420	0.02530	-0.01645	-0.00134
0.32400	0.00107	0.00007	0.00071	0.00204	-3.42760	-89.73000	0.06747	0.03632	0.08420	0.02530	-0.01645	-0.00134
0.32600	0.00107	0.00007	0.00071	0.00204	-3.33740	-89.64000	0.06747	0.03632	0.08420	0.02530	-0.01645	-0.00134
0.32800	0.00107	0.00007	0.00071	0.00204	-3.42760	-89.64000	0.06747	0.03632	0.08420	0.02530	-0.01645	-0.00134
0.33000	0.00012	0.00104	0.00057	0.00147	-3.51780	-89.73000	0.08249	0.01183	0.06277	0.02252	-0.02560	0.00021
0.33200	0.00012	0.00104	0.00057	0.00147	-3.60800	-90.00000	0.08249	0.01183	0.06277	0.02252	-0.02560	0.00021
0.33400	0.00012	0.00104	0.00057	0.00147	0.00000	0.00000	0.08249	0.01183	0.06277	0.02252	-0.02560	0.00021
0.33600	0.00012	0.00104	0.00057	0.00147	-3.69820	-89.91000	0.08249	0.01183	0.06277	0.02252	-0.02560	0.00021
0.33800	-0.00010	0.00005	0.00063	0.00150	-3.78840	-89.82000	0.09370	-0.00514	0.05721	0.02190	-0.02015	0.00257
0.34000	-0.00010	0.00005	0.00063	0.00150	-3.69820	-89.82000	0.09370	-0.00514	0.05721	0.02190	-0.02015	0.00257
0.34200	-0.00010	0.00005	0.00063	0.00150	-3.69820	-89.73000	0.09370	-0.00514	0.05721	0.02190	-0.02015	0.00257
0.34400	-0.00010	0.00005	0.00063	0.00150	-3.69820	-89.73000	0.09370	-0.00514	0.05721	0.02190	-0.02015	0.00257
0.34600	-0.00060	0.00110	0.00033	0.00171	-3.60800	-89.82000	0.07241	0.00319	0.08019	0.02643	-0.02611	0.00555
0.34800	-0.00060	0.00110	0.00033	0.00171	0.00000	0.00000	0.07241	0.00319	0.08019	0.02643	-0.02611	0.00555
0.35000	-0.00060	0.00110	0.00033	0.00171	-3.51780	-89.82000	0.07241	0.00319	0.08019	0.02643	-0.02611	0.00555
0.35200	-0.00060	0.00110	0.00033	0.00171	-3.42760	-89.82000	0.07241	0.00319	0.08019	0.02643	-0.02611	0.00555
0.35400	0.00079	0.00032	0.00052	0.00110	-3.42760	-89.82000	0.07961	-0.01759	0.06246	0.02149	-0.01974	0.00391
0.35600	0.00079	0.00032	0.00052	0.00110	-3.42760	-89.73000	0.07961	-0.01759	0.06246	0.02149	-0.01974	0.00391
0.35800	0.00079	0.00032	0.00052	0.00110	-3.60800	-89.64000	0.07961	-0.01759	0.06246	0.02149	-0.01974	0.00391
0.36000	0.00079	0.00032	0.00052	0.00110	-3.51780	-89.73000	0.07961	-0.01759	0.06246	0.02149	-0.01974	0.00391
0.36200	-0.00015	0.00119	0.00026	0.00152	0.00000	0.00000	0.09977	-0.01368	0.04935	0.02108	-0.02138	-0.00031
0.36400	-0.00015	0.00119	0.00026	0.00152	-3.69820	-89.73000	0.09977	-0.01368	0.04935	0.02108	-0.02138	-0.00031
0.36600	-0.00015	0.00119	0.00026	0.00152	-3.60800	-89.73000	0.09977	-0.01368	0.04935	0.02108	-0.02138	-0.00031
0.36800	-0.00015	0.00119	0.00026	0.00152	-3.78840	-89.73000	0.09977	-0.01368	0.04935	0.02108	-0.02138	-0.00031
0.37000	-0.00044	0.00062	0.00042	0.00237	-3.60800	-89.82000	0.07334	-0.00288	0.07973	0.02201	-0.02632	-0.00062
0.37200	-0.00044	0.00062	0.00042	0.00237	-3.69820	-89.73000	0.07334	-0.00288	0.07973	0.02201	-0.02632	-0.00062
0.37400	-0.00044	0.00062	0.00042	0.00237	-3.69820	-89.73000	0.07334	-0.00288	0.07973	0.02201	-0.02632	-0.00062
0.37600	-0.00044	0.00062	0.00042	0.00237	0.00000	0.00000	0.07334	-0.00288	0.07973	0.02201	-0.02632	-0.00062
0.37800	-0.00018	0.00051	0.00043	0.00107	-3.69820	-89.82000	0.08846	0.01307	0.07557	0.02447	-0.02570	-0.00195
0.38000	-0.00018	0.00051	0.00043	0.00107	-3.60800	-89.73000	0.08846	0.01307	0.07557	0.02447	-0.02570	-0.00195
0.38200	-0.00018	0.00051	0.00043	0.00107	-3.51780	-89.82000	0.08846	0.01307	0.07557	0.02447	-0.02570	-0.00195
0.38400	-0.00018	0.00051	0.00043	0.00107	-3.51780	-89.91000	0.08846	0.01307	0.07557	0.02447	-0.02570	-0.00195
0.38600	0.00141	0.00052	0.00070	0.00093	-3.60800	-89.82000	0.09504	0.00103	0.06107	0.02190	-0.01912	-0.00093
0.38800	0.00141	0.00052	0.00070	0.00093	-3.60800	-89.82000	0.09504	0.00103	0.06107	0.02190	-0.01912	-0.00093
0.39000	0.00141	0.00052	0.00070	0.00093	-3.60800	-89.82000	0.09504	0.00103	0.06107	0.02190	-0.01912	-0.00093
0.39200	0.00141	0.00052	0.00070	0.00093	-3.60800	-89.64000	0.09504	0.00103	0.06107	0.02190	-0.01912	-0.00093
0.39400	0.00020	0.00101	0.00049	0.00117	-3.69820	-89.82000	0.04731	0.02047	0.09160	0.01789	-0.01912	-0.00093
0.39600	0.00020	0.00101	0.00049	0.00117	0.00000	0.00000	0.04731	0.02047	0.09160	0.01789	-0.01912	-0.00093
0.39800	0.00020	0.00101	0.00049	0.00117	-3.60800	-89.82000	0.04731	0.02047	0.09160	0.01789	-0.01912	-0.00093
0.40000	0.00020	0.00101	0.00049	0.00117	-3.60800	-89.73000	0.04731	0.02047	0.09160	0.01789	-0.01912	-0.00093
0.40200	-0.00062	0.00104	0.00051	0.00145	-3.60800	-89.73000	0.08064	0.01636	0.08281	0.02077	-0.02221	-0.00134
0.40400	-0.00062	0.00104	0.00051	0.00145	-3.51780	-89.64000	0.08064	0.01636	0.08281	0.02077	-0.02221	-0.00134
0.40600	-0.00062	0.00104	0.00051	0.00145	-3.51780	-89.73000	0.08064	0.01636	0.08281	0.02077	-0.02221	-0.00134
0.40800	-0.00062	0.00104	0.00051	0.00145	-3.51780	-89.91000	0.08064	0.01636	0.08281	0.02077	-0.02221	-0.00134
0.41000	-0.00029	0.00059	0.00029	0.00193	0.00000	0.00000	0.07262	-0.01903	0.06385	0.02386	-0.02056	0.00195
0.41200	-0.00029	0.00059	0.00029	0.00193	-3.60800	-89.82000	0.07262	-0.01903	0.06385	0.02386	-0.02056	0.00195
0.41400	-0.00029	0.00059	0.00029	0.00193	-3.60800	-89.82000	0.07262	-0.01903	0.06385	0.02386	-0.02056	0.00195
0.41600	-0.00029	0.00059	0.00029	0.00193	-3.69820	-89.73000	0.07262	-0.01903	0.06385	0.02386	-0.02056	0.00195
0.41800	0.00161	0.00096	0.00043	0.00201	-3.69820	-89.73000	0.05719	0.00854	0.08112	0.02170	-0.01768	-0.00442
0.42000	0.00161	0.00096	0.00043	0.00201	-3.69820	-89.73000	0.05719	0.00854	0.08112	0.02170	-0.01768	-0.00442
0.42200	0.00161	0.00096	0.00043	0.00201	-3.60800	-89.82000	0.05719	0.00854	0.08112	0.02170	-0.01768	-0.00442
0.42400	0.00161	0.00096	0.00043	0.00201	0.00000	0.00000	0.05719	0.00854	0.08112	0.02170	-0.01768	-0.00442
0.42600	-0.00005	0.00041	0.00029	0.00042	-3.60800	-89.73000	0.08002	0.00165	0.08713	0.02293	-0.02467	-0.00689
0.42800	-0.00005	0.00041	0.00029	0.00042	-3.69820	-89.64000	0.08002	0.00165	0.08713	0.02293	-0.02467	-0.00689
0.43000	-0.00005	0.00041	0.00029	0.00042	-3.60800	-89.82000	0.08002	0.00165	0.08713	0.02293	-0.02467	-0.00689
0.43200	-0.00005	0.00041	0.00029	0.00042	-3.51780	-89.73000	0.08002	0.00165	0.08713	0.02293	-0.02467	-0.00689
0.43400	-0.00032	0.00104	0.00037	0.00043	-3.60800	-89.82000	0.09052	-0.02233	0.05367	0.02026	-0.02313	-0.00278
0.43600	-0.00032	0.00104	0.00037	0.00043	-3.69820	-89.73000	0.09052	-0.02233	0.05367	0.02026	-0.02313	-0.00278
0.43800	-0.00032	0.00104	0.00037	0.00043	0.00000	0.00000	0.09052	-0.02233	0.05367	0.02026	-0.02313	-0.00278
0.44000	-0.00032	0.00104	0.00037	0.00043	-3.60800	-89.82000	0.09052	-0.02233	0.05367	0.02026	-0.02313	-0.00278
0.44200	-0.00027	0.00060	0.00048	0.00126	-3.60800	-89.73000	0.09247	0.00967	0.08266	0.01861	-0.02796	0.00226
0.44400	-0.00027	0.00060	0.00048	0.00126	-3.60800	-89.82000	0.09247	0.00967	0.08266	0.01861	-0.02796	0.00226
0.44600	-0.00027	0.00060	0.00048	0.00126	-3.69820	-89.73000	0.09247	0.00967	0.08266	0.01861	-0.02796	0.00226
0.44800	-0.00027	0.00060	0.00048	0.00126	-3.60800	-89.73000	0.09247	0.00967	0.08266	0.01861	-0.02796	0.00226
0.45000	0.00130	0.00122	0.00016	0.00185	-3.51780	-89.82000	0.08177	-0.01440	0.07649	0.02231	-0.02899	0.00329
0.45200	0.00130	0.00122	0.00016	0.00185	0.00000	0.00000	0.08177	-0.01440	0.07649	0.02231	-0.02899	0.00329
0.45400	0.00130	0.00122	0.00016	0.00185	-3.60800	-89.73000	0.08177	-0.01440	0.07649	0.02231	-0.02899	0.00329
0.45600	0.00130	0.00122	0.00016	0.00185	-3.69820	-89.82000	0.08177	-0.01440	0.07649	0.02231	-0.02899	0.00329
0.45800	0.00018	0.00030	0.00063	0.00121	-3.69820	-89.82000	0.09093	-0.02150	0.07865	0.01769	-0.02293	-0.00288
0.46000	0.00018	0.00030	0.00063	0.00121	-3.51780	-89.73000	0.09093	-0.02150	0.07865	0.01769	-0.02293	-0.00288
0.46200	0.00018	0.00030	0.00063	0.00121	-3.51780	-89.73000	0.09093	-0.02150	0.07865	0.01769	-0.02293	-0.00288
0.46400	0.00018	0.00030	0.00063	0.00121	-3.69820	-89.82000	0.09093	-0.02150	0.07865	0.01769	-0.02293	-0.00288
0.46600	-0.00010	0.00113	0.00049	0.00115	0.00000	0.00000	0.09093	-0.02150	0.07865	0.01769	-0.02293	-0.00288
0.46800	0.00001	0.00055	0.00043	0.00127	-3.60800	-89.82000	0.07426	-0.01800	0.08960	0.01625	-0.01995	0.00093
0.47000	0.00001	0.00055	0.00043	0.00127	-3.69820	-89.82000	0.07426	-0.01800	0.08960	0.01625	-0.01995	0.00093
0.47200	0.00001	0.00055	0.00043	0.00127	-3.69820	-89.82000	0.07426	-0.01800	0.08960	0.01625	-0.01995	0.00093
0.47400	0.00001	0.00055	0.00043	0.00127	-3.60800	-89.82000	0.07426	-0.01800	0.08960	0.01625	-0.01995	0.00093
0.47600	0.00098	0.00045	0.00055	0.00173	-3.60800	-89.82000	0.07056	-0.01903	0.06061	0.01841	-0.01830	0.00093
0.47800	0.00098	0.00045	0.00055	0.00173	-3.51780	-89.91000	0.07056	-0.01903	0.06061	0.01841	-0.01830	0.00093
0.48000	0.00098	0.00045	0.00055	0.00173	0.00000	0.00000	0.07056	-0.01903	0.06061	0.01841	-0.01830	0.00093
0.48200	0.00098	0.00045	0.00055	0.00173	-3.51780	-89.91000	0.07056	-0.01903	0.06061	0.01841	-0.01830	0.00093
0.48400	0.00065	0.00145	0.00053	0.00160	-3.51780	-89.82000	0.07056	-0.01903	0.06061	0.01841	-0.01830	0.00093
0.48600	-0.00079	0.00024	0.00096	0.00108	-3.51780	-89.82000	0.08774	-0.00237	0.05490	0.01728	-0.02354	0.00483
0.48800	-0.00079	0.00024	0.00096	0.00108	-3.51780	-89.82000	0.08774	-0.00237	0.05490	0.01728	-0.02354	0.00483
0.49000	-0.00079	0.00024	0.00096	0.00108	-3.51780	-89.73000	0.08774	-0.00237	0.05490	0.01728	-0.02354	0.00483
0.49200	-0.00079	0.00024	0.00096	0.00108	-3.60800	-89.82000	0.08774	-0.00237	0.05490	0.01728	-0.02354	0.00483
0.49400	-0.00023	0.00039	0.00059	0.00136	0.00000	0.00000	0.06665	0.02377	0.07063	0.02026	-0.02879	0.00082
0.49600	-0.00023	0.00039	0.00059	0.00136	-3.51780	-89.73000	0.06665	0.02377	0.07063	0.02026	-0.02879	0.00082
0.49800	-0.00023	0.00039	0.00059	0.00136	-3.60800	-89.73000	0.06665	0.02377	0.07063	0.02026	-0.02879	0.00082
0.50000	-0.00023	0.00039	0.00059	0.00136	-3.51780	-89.82000	0.06665	0.02377	0.07063	0.02026	-0.02879	0.00082
0.50200	-0.00049	0.00122	0.00084	0.00103	-3.60800	-89.82000	0.10841	0.01080	0.06909	0.02108	-0.02982	0.00237
0.50400	-0.00049	0.00122	0.00084	0.00103	-3.60800	-89.64000	0.10841	0.01080	0.06909	0.02108	-0.02982	0.00237
0.50600	-0.00049	0.00122	0.00084	0.00103	-3.69820	-89.64000	0.10841	0.01080	0.06909	0.02108	-0.02982	0.00237
0.50800	-0.00049	0.00122	0.00084	0.00103	0.00000	0.00000	0.10841	0.01080	0.06909	0.02108	-0.02982	0.00237
0.51000	0.00083	0.00049	-0.00017	0.00110	-3.69820	-89.64000	0.09247	-0.01656	0.05968	0.01378	-0.02971	0.00062
0.51200	0.00083	0.00049	-0.00017	0.00110	-3.69820	-89.73000	0.09247	-0.01656	0.05968	0.01378	-0.02971	0.00062
0.51400	0.00083	0.00049	-0.00017	0.00110	-3.60800	-89.64000	0.09247	-0.01656	0.05968	0.01378	-0.02971	0.00062
0.51600	0.00083	0.00049	-0.00017	0.00110	-3.60800	-89.73000	0.09247	-0.01656	0.05968	0.01378	-0.02971	0.00062
0.51800	-0.00055	0.00052	0.00046	0.00101	-3.69820	-89.82000	0.08208	-0.00658	0.07495	0.01337	-0.02724	0.00021
0.52000	-0.00055	0.00052	0.00046	0.00101	-3.51780	-89.73000	0.08208	-0.00658	0.07495	0.01337	-0.02724	0.00021
0.52200	-0.00055	0.00052	0.00046	0.00101	0.00000	0.00000	0.08208	-0.00658	0.07495	0.01337	-0.02724	0.00021
0.52400	-0.00055	0.00052	0.00046	0.00101	-3.51780	-89.73000	0.08208	-0.00658	0.07495	0.01337	-0.02724	0.00021
0.52600	-0.00012	0.00067	0.00038	0.00110	-3.51780	-89.64000	0.08208	-0.00658	0.07495	0.01337	-0.02724	0.00021
0.52800	-0.00094	0.00158	0.00039	0.00102	-3.60800	-89.64000	0.10420	-0.03066	0.06092	0.01090	-0.02406	-0.00010
0.53000	-0.00094	0.00158	0.00039	0.00102	-3.60800	-89.64000	0.10420	-0.03066	0.06092	0.01090	-0.02406	-0.00010
0.53200	-0.00094	0.00158	0.00039	0.00102	-3.78840	-89.73000	0.10420	-0.03066	0.06092	0.01090	-0.02406	-0.00010
0.53400	-0.00094	0.00158	0.00039	0.00102	-3.78840	-89.73000	0.10420	-0.03066	0.06092	0.01090	-0.02406	-0.00010
0.53600	-0.00052	0.00015	0.00058	0.00133	0.00000	0.00000	0.06069	-0.03405	0.06138	0.01419	-0.02437	0.00442
0.53800	0.00216	0.00004	0.00058	0.00152	-3.87860	-89.73000	0.06069	-0.03405	0.06138	0.01419	-0.02437	0.00442
0.54000	0.00216	0.00004	0.00058	0.00152	-3.87860	-89.73000	0.06069	-0.03405	0.06138	0.01419	-0.02437	0.00442
0.54200	0.00216	0.00004	0.00058	0.00152	-3.69820	-89.73000	0.06069	-0.03405	0.06138	0.01419	-0.02437	0.00442
0.54400	0.00216	0.00004	0.00058	0.00152	-3.60800	-89.73000	0.06069	-0.03405	0.06138	0.01419	-0.02437	0.00442
0.54600	0.00063	0.00123	0.00040	0.00126	-3.69820	-89.64000	0.06274	-0.00278	0.07140	0.01481	-0.01563	0.00360
0.54800	0.00063	0.00123	0.00040	0.00126	-3.51780	-89.73000	0.06274	-0.00278	0.07140	0.01481	-0.01563	0.00360
0.55000	0.00063	0.00123	0.00040	0.00126	0.00000	0.00000	0.06274	-0.00278	0.07140	0.01481	-0.01563	0.00360
0.55200	0.00063	0.00123	0.00040	0.00126	-3.51780	-89.82000	0.06274	-0.00278	0.07140	0.01481	-0.01563	0.00360
0.55400	-0.00061	-0.00016	0.00074	0.00090	-3.60800	-89.82000	0.06171	-0.03169	0.05891	0.01398	-0.02097	0.00237
0.55600	-0.00061	-0.00016	0.00074	0.00090	-3.60800	-89.82000	0.06171	-0.03169	0.05891	0.01398	-0.02097	0.00237
0.55800	-0.00061	-0.00016	0.00074	0.00090	-3.60800	-89.82000	0.06171	-0.03169	0.05891	0.01398	-0.02097	0.00237
0.56000	-0.00061	-0.00016	0.00074	0.00090	-3.51780	-89.73000	0.06171	-0.03169	0.05891	0.01398	-0.02097	0.00237
0.56200	-0.00052	0.00139	0.00044	0.00109	-3.51780	-89.82000	0.05534	-0.00350	0.06816	0.01758	-0.02354	0.00350
0.56400	-0.00052	0.00139	0.00044	0.00109	0.00000	0.00000	0.05534	-0.00350	0.06816	0.01758	-0.02354	0.00350
0.56600	-0.00052	0.00139	0.00044	0.00109	-3.51780	-89.73000	0.05534	-0.00350	0.06816	0.01758	-0.02354	0.00350
0.56800	-0.00052	0.00139	0.00044	0.00109	-3.42760	-89.73000	0.05534	-0.00350	0.06816	0.01758	-0.02354	0.00350
0.57000	0.00077	-0.00009	0.00062	0.00140	-3.51780	-89.64000	0.06387	-0.00586	0.07063	0.00812	-0.02252	0.00154
0.57200	0.00077	-0.00009	0.00062	0.00140	-3.60800	-89.64000	0.06387	-0.00586	0.07063	0.00812	-0.02252	0.00154
0.57400	0.00077	-0.00009	0.00062	0.00140	-3.60800	-89.64000	0.06387	-0.00586	0.07063	0.00812	-0.02252	0.00154
0.57600	0.00077	-0.00009	0.00062	0.00140	-3.69820	-89.73000	0.06387	-0.00586	0.07063	0.00812	-0.02252	0.00154
0.57800	0.00040	0.00171	0.00041	0.00174	0.00000	0.00000	0.09041	-0.01584	0.05984	0.01337	-0.02128	0.00350
0.58000	0.00040	0.00171	0.00041	0.00174	-3.78840	-89.73000	0.09041	-0.01584	0.05984	0.01337	-0.02128	0.00350
0.58200	0.00040	0.00171	0.00041	0.00174	-3.78840	-89.91000	0.09041	-0.01584	0.05984	0.01337	-0.02128	0.00350
0.58400	0.00040	0.00171	0.00041	0.00174	-3.69820	-89.91000	0.09041	-0.01584	0.05984	0.01337	-0.02128	0.00350
0.58600	-0.00026	-0.00012	0.00050	0.00124	-3.60800	-89.91000	0.09041	-0.01584	0.05984	0.01337	-0.02128	0.00350
0.58800	-0.00045	0.00232	0.00037	0.00066	-3.60800	-89.82000	0.07828	-0.00864	0.08837	0.00915	-0.02704	0.00175
0.59000	-0.00045	0.00232	0.00037	0.00066	-3.60800	-89.73000	0.07828	-0.00864	0.08837	0.00915	-0.02704	0.00175
0.59200	-0.00045	0.00232	0.00037	0.00066	0.00000	0.00000	0.07828	-0.00864	0.08837	0.00915	-0.02704	0.00175
0.59400	-0.00045	0.00232	0.00037	0.00066	-3.78840	-89.73000	0.07828	-0.00864	0.08837	0.00915	-0.02704	0.00175
0.59600	-0.00046	0.00080	0.00039	0.00138	-3.69820	-89.64000	0.08434	-0.01142	0.06847	0.01604	-0.02632	-0.00041
0.59800	-0.00046	0.00080	0.00039	0.00138	-3.60800	-89.73000	0.08434	-0.01142	0.06847	0.01604	-0.02632	-0.00041
0.60000	-0.00046	0.00080	0.00039	0.00138	-3.60800	-89.82000	0.08434	-0.01142	0.06847	0.01604	-0.02632	-0.00041
0.60200	-0.00046	0.00080	0.00039	0.00138	-3.69820	-89.82000	0.08434	-0.01142	0.06847	0.01604	-0.02632	-0.00041
0.60400	0.00112	0.00011	0.00050	0.00185	-3.69820	-89.64000	0.10852	-0.03632	0.06014	0.01614	-0.02879	0.00298
0.60600	0.00112	0.00011	0.00050	0.00185	0.00000	0.00000	0.10852	-0.03632	0.06014	0.01614	-0.02879	0.00298
0.60800	0.00112	0.00011	0.00050	0.00185	-3.69820	-89.73000	0.10852	-0.03632	0.06014	0.01614	-0.02879	0.00298
0.61000	0.00112	0.00011	0.00050	0.00185	0.00000	0.00000	0.10852	-0.03632	0.06014	0.01614	-0.02879	0.00298
0.61200	0.00005	0.00061	0.00060	0.00155	0.00000	0.00000	0.06202	-0.01944	0.08066	0.01337	-0.03403	0.00309
0.61400	0.00005	0.00061	0.00060	0.00155	-3.60800	-89.73000	0.06202	-0.01944	0.08066	0.01337	-0.03403	0.00309
0.61600	0.00005	0.00061	0.00060	0.00155	-3.69820	-89.82000	0.06202	-0.01944	0.08066	0.01337	-0.03403	0.00309
0.61800	0.00005	0.00061	0.00060	0.00155	-3.78840	-89.82000	0.06202	-0.01944	0.08066	0.01337	-0.03403	0.00309
0.62000	-0.00083	0.00048	0.00038	0.00200	-3.69820	-89.73000	0.08290	0.00134	0.05968	0.01656	-0.02694	0.00545
0.62200	-0.00083	0.00048	0.00038	0.00200	-3.60800	-89.73000	0.08290	0.00134	0.05968	0.01656	-0.02694	0.00545
0.62400	-0.00083	0.00048	0.00038	0.00200	-3.60800	-89.73000	0.08290	0.00134	0.05968	0.01656	-0.02694	0.00545
0.62600	-0.00083	0.00048	0.00038	0.00200	0.00000	0.00000	0.08290	0.00134	0.05968	0.01656	-0.02694	0.00545
0.62800	-0.00105	0.00074	0.00061	0.00134	-3.60800	-89.73000	0.08702	-0.03025	0.06816	0.01851	-0.02796	0.00463
0.63000	-0.00105	0.00074	0.00061	0.00134	-3.60800	-89.73000	0.08702	-0.03025	0.06816	0.01851	-0.02796	0.00463
0.63200	-0.00105	0.00074	0.00061	0.00134	-3.60800	-89.73000	0.08702	-0.03025	0.06816	0.01851	-0.02796	0.00463
0.63400	-0.00105	0.00074	0.00061	0.00134	-3.69820	-89.73000	0.08702	-0.03025	0.06816	0.01851	-0.02796	0.00463
0.63600	0.00093	0.00085	0.00055	0.00106	-3.60800	-89.64000	0.04443	-0.01327	0.08590	0.00936	-0.02303	0.00206
0.63800	0.00093	0.00085	0.00055	0.00106	0.00000	0.00000	0.04443	-0.01327	0.08590	0.00936	-0.02303	0.00206
0.64000	0.00093	0.00085	0.00055	0.00106	0.00000	0.00000	0.04443	-0.01327	0.08590	0.00936	-0.02303	0.00206
0.64200	0.00093	0.00085	0.00055	0.00106	-3.60800	-89.73000	0.04443	-0.01327	0.08590	0.00936	-0.02303	0.00206
0.64400	-0.00009	0.00021	0.00056	0.00109	-3.60800	-89.73000	0.07756	-0.00967	0.07449	0.01470	-0.02375	-0.00041
0.64600	-0.00009	0.00021	0.00056	0.00109	-3.69820	-89.73000	0.07756	-0.00967	0.07449	0.01470	-0.02375	-0.00041
0.64800	-0.00009	0.00021	0.00056	0.00109	-3.69820	-89.73000	0.07756	-0.00967	0.07449	0.01470	-0.02375	-0.00041
0.65000	-0.00009	0.00021	0.00056	0.00109	-3.69820	-89.73000	0.07756	-0.00967	0.07449	0.01470	-0.02375	-0.00041
0.65200	-0.00016	0.00088	0.00082	0.00228	-3.69820	-89.73000	0.07786	-0.06183	0.04596	0.01553	-0.02611	0.00021
0.65400	-0.00016	0.00088	0.00082	0.00228	0.00000	0.00000	0.07786	-0.06183	0.04596	0.01553	-0.02611	0.00021
0.65600	-0.00016	0.00088	0.00082	0.00228	-3.60800	-89.73000	0.07786	-0.06183	0.04596	0.01553	-0.02611	0.00021
0.65800	-0.00016	0.00088	0.00082	0.00228	-3.60800	-89.64000	0.07786	-0.06183	0.04596	0.01553	-0.02611	0.00021
0.66000	-0.00012	0.00059	0.00056	0.00135	-3.60800	-89.64000	0.06850	-0.01574	0.09083	0.01183	-0.02324	-0.00123
0.66200	0.00162	-0.00000	0.00047	0.00134	-3.60800	-89.55000	0.06850	-0.01574	0.09083	0.01183	-0.02324	-0.00123
0.66400	0.00162	-0.00000	0.00047	0.00134	-3.51780	-89.55000	0.06850	-0.01574	0.09083	0.01183	-0.02324	-0.00123
0.66600	0.00162	-0.00000	0.00047	0.00134	0.00000	0.00000	0.06850	-0.01574	0.09083	0.01183	-0.02324	-0.00123
0.66800	0.00162	-0.00000	0.00047	0.00134	0.00000	0.00000	0.06850	-0.01574	0.09083	0.01183	-0.02324	-0.00123
0.67000	0.00104	0.00088	0.00040	0.00137	-3.60800	-89.73000	0.08589	-0.02171	0.06338	0.01337	-0.02622	0.00504
0.67200	0.00104	0.00088	0.00040	0.00137	-3.60800	-89.73000	0.08589	-0.02171	0.06338	0.01337	-0.02622	0.00504
0.67400	0.00104	0.00088	0.00040	0.00137	-3.60800	-89.82000	0.08589	-0.02171	0.06338	0.01337	-0.02622	0.00504
0.67600	0.00104	0.00088	0.00040	0.00137	-3.69820	-89.73000	0.08589	-0.02171	0.06338	0.01337	-0.02622	0.00504
0.67800	-0.00011	0.00002	0.00044	0.00138	-3.69820	-89.73000	0.08496	-0.01646	0.08652	0.01347	-0.02858	0.00206
0.68000	-0.00011	0.00002	0.00044	0.00138	-3.69820	-89.73000	0.08496	-0.01646	0.08652	0.01347	-0.02858	0.00206
0.68200	-0.00011	0.00002	0.00044	0.00138	0.00000	0.00000	0.08496	-0.01646	0.08652	0.01347	-0.02858	0.00206
0.68400	-0.00011	0.00002	0.00044	0.00138	-3.60800	-89.64000	0.08496	-0.01646	0.08652	0.01347	-0.02858	0.00206
0.68600	-0.00049	0.00130	0.00041	0.00177	-3.60800	-89.73000	0.07828	0.01543	0.09037	0.01717	-0.03321	0.00843
0.68800	-0.00049	0.00130	0.00041	0.00177	-3.60800	-89.82000	0.07828	0.01543	0.09037	0.01717	-0.03321	0.00843
0.69000	-0.00049	0.00130	0.00041	0.00177	-3.69820	-89.73000	0.07828	0.01543	0.09037	0.01717	-0.03321	0.00843
0.69200	-0.00049	0.00130	0.00041	0.00177	-3.51780	-89.73000	0.07828	0.01543	0.09037	0.01717	-0.03321	0.00843
0.69400	0.00043	0.00028	0.00061	0.00228	-3.51780	-89.73000	0.06305	-0.00010	0.06292	0.01522	-0.02642	0.00247
0.69600	0.00043	0.00028	0.00061	0.00228	0.00000	0.00000	0.06305	-0.00010	0.06292	0.01522	-0.02642	0.00247
0.69800	0.00043	0.00028	0.00061	0.00228	-3.69820	-89.82000	0.06305	-0.00010	0.06292	0.01522	-0.02642	0.00247
0.70000	0.00043	0.00028	0.00061	0.00228	-3.69820	-89.82000	0.06305	-0.00010	0.06292	0.01522	-0.02642	0.00247
0.70200	0.00072	0.00123	0.00044	0.00280	-3.60800	-89.73000	0.08177	-0.02161	0.03825	0.01450	-0.02776	0.00905
0.70400	0.00072	0.00123	0.00044	0.00280	-3.60800	-89.73000	0.08177	-0.02161	0.03825	0.01450	-0.02776	0.00905
0.70600	0.00072	0.00123	0.00044	0.00280	-3.69820	-89.82000	0.08177	-0.02161	0.03825	0.01450	-0.02776	0.00905
0.70800	0.00072	0.00123	0.00044	0.00280	0.00000	0.00000	0.08177	-0.02161	0.03825	0.01450	-0.02776	0.00905
0.71000	-0.00069	0.00055	0.00044	0.00008	-3.69820	-89.82000	0.06038	-0.02418	0.09299	0.01481	-0.03084	0.00504
0.71200	-0.00069	0.00055	0.00044	0.00008	-3.69820	-89.82000	0.06038	-0.02418	0.09299	0.01481	-0.03084	0.00504
0.71400	-0.00069	0.00055	0.00044	0.00008	-3.69820	-89.73000	0.06038	-0.02418	0.09299	0.01481	-0.03084	0.00504
0.71600	-0.00069	0.00055	0.00044	0.00008	-3.60800	-89.64000	0.06038	-0.02418	0.09299	0.01481	-0.03084	0.00504
0.71800	-0.00020	0.00151	0.00049	0.00107	-3.60800	-89.82000	0.06892	-0.01461	0.06462	0.01059	-0.02282	0.00144
0.72000	-0.00020	0.00151	0.00049	0.00107	-3.51780	-89.73000	0.06892	-0.01461	0.06462	0.01059	-0.02282	0.00144
0.72200	-0.00020	0.00151	0.00049	0.00107	-3.51780	-89.73000	0.06892	-0.01461	0.06462	0.01059	-0.02282	0.00144
0.72400	-0.00020	0.00151	0.00049	0.00107	0.00000	0.00000	0.06892	-0.01461	0.06462	0.01059	-0.02282	0.00144
0.72600	0.00024	-0.00001	0.00036	0.00139	-3.60800	-89.73000	0.09679	-0.03601	0.05984	0.01645	-0.03084	0.00123
0.72800	0.00024	-0.00001	0.00036	0.00139	-3.51780	-89.64000	0.09679	-0.03601	0.05984	0.01645	-0.03084	0.00123
0.73000	0.00024	-0.00001	0.00036	0.00139	-3.60800	-89.64000	0.09679	-0.03601	0.05984	0.01645	-0.03084	0.00123
0.73200	0.00024	-0.00001	0.00036	0.00139	-3.60800	-89.64000	0.09679	-0.03601	0.05984	0.01645	-0.03084	0.00123
0.73400	0.00051	0.00158	0.00046	0.00064	-3.69820	-89.73000	0.06377	-0.02088	0.07942	0.01604	-0.02920	0.00031
0.73600	0.00051	0.00158	0.00046	0.00064	-3.60800	-89.82000	0.06377	-0.02088	0.07942	0.01604	-0.02920	0.00031
0.73800	0.00051	0.00158	0.00046	0.00064	0.00000	0.00000	0.06377	-0.02088	0.07942	0.01604	-0.02920	0.00031
0.74000	0.00051	0.00158	0.00046	0.00064	-3.60800	-89.82000	0.06377	-0.02088	0.07942	0.01604	-0.02920	0.00031
0.74200	0.00020	-0.00015	0.00070	0.00118	-3.51780	-89.82000	0.08887	-0.01204	0.08189	0.01193	-0.02498	-0.00658
0.74400	0.00020	-0.00015	0.00070	0.00118	-3.51780	-89.73000	0.08887	-0.01204	0.08189	0.01193	-0.02498	-0.00658
0.74600	0.00020	-0.00015	0.00070	0.00118	-3.42760	-89.73000	0.08887	-0.01204	0.08189	0.01193	-0.02498	-0.00658
0.74800	0.00020	-0.00015	0.00070	0.00118	-3.42760	-89.82000	0.08887	-0.01204	0.08189	0.01193	-0.02498	-0.00658
0.75000	-0.00013	0.00174	0.00053	0.00116	-3.51780	-89.73000	0.09134	-0.04300	0.05675	0.01481	-0.03125	0.00185
0.75200	-0.00013	0.00174	0.00053	0.00116	0.00000	0.00000	0.09134	-0.04300	0.05675	0.01481	-0.03125	0.00185
0.75400	-0.00013	0.00174	0.00053	0.00116	-3.60800	-89.73000	0.09134	-0.04300	0.05675	0.01481	-0.03125	0.00185
0.75600	-0.00013	0.00174	0.00053	0.00116	-3.60800	-89.82000	0.09134	-0.04300	0.05675	0.01481	-0.03125	0.00185
0.75800	0.00044	-0.00011	0.00050	0.00125	-3.60800	-89.73000	0.07426	-0.00710	0.10194	0.01470	-0.02940	0.00514
0.76000	0.00044	-0.00011	0.00050	0.00125	-3.51780	-89.82000	0.07426	-0.00710	0.10194	0.01470	-0.02940	0.00514
0.76200	0.00044	-0.00011	0.00050	0.00125	-3.42760	-89.73000	0.07426	-0.00710	0.10194	0.01470	-0.02940	0.00514
0.76400	0.00044	-0.00011	0.00050	0.00125	-3.51780	-89.73000	0.07426	-0.00710	0.10194	0.01470	-0.02940	0.00514
0.76600	-0.00017	0.00193	0.00027	0.00105	0.00000	0.00000	0.07262	0.01049	0.07202	0.01810	-0.02200	0.00782
0.76800	-0.00017	0.00193	0.00027	0.00105	-3.60800	-89.73000	0.07262	0.01049	0.07202	0.01810	-0.02200	0.00782
0.77000	-0.00017	0.00193	0.00027	0.00105	-3.60800	-89.73000	0.07262	0.01049	0.07202	0.01810	-0.02200	0.00782
0.77200	-0.00017	0.00193	0.00027	0.00105	-3.60800	-89.73000	0.07262	0.01049	0.07202	0.01810	-0.02200	0.00782
0.77400	-0.00007	-0.00001	0.00042	0.00103	-3.60800	-89.73000	0.07591	-0.02726	0.04133	0.01645	-0.02766	0.00154
0.77600	-0.00007	-0.00001	0.00042	0.00103	-3.51780	-89.82000	0.07591	-0.02726	0.04133	0.01645	-0.02766	0.00154
0.77800	-0.00007	-0.00001	0.00042	0.00103	0.00000	0.00000	0.07591	-0.02726	0.04133	0.01645	-0.02766	0.00154
0.78000	-0.00007	-0.00001	0.00042	0.00103	0.00000	0.00000	0.07591	-0.02726	0.04133	0.01645	-0.02766	0.00154
0.78200	-0.00044	0.00121	0.00045	0.00193	-3.42760	-89.91000	0.07385	-0.00298	0.07865	0.01265	-0.02766	0.00381
0.78400	-0.00044	0.00121	0.00045	0.00193	-3.51780	-89.91000	0.07385	-0.00298	0.07865	0.01265	-0.02766	0.00381
0.78600	-0.00044	0.00121	0.00045	0.00193	-3.51780	-89.82000	0.07385	-0.00298	0.07865	0.01265	-0.02766	0.00381
0.78800	-0.00044	0.00121	0.00045	0.00193	-3.60800	-89.91000	0.07385	-0.00298	0.07865	0.01265	-0.02766	0.00381
0.79000	0.00093	-0.00017	0.00075	0.00111	-3.60800	-89.91000	0.08064	-0.01615	0.07834	0.01008	-0.02529	0.00545
0.79200	0.00093	-0.00017	0.00075	0.00111	-3.69820	-89.82000	0.08064	-0.01615	0.07834	0.01008	-0.02529	0.00545
0.79400	0.00093	-0.00017	0.00075	0.00111	0.00000	0.00000	0.08064	-0.01615	0.07834	0.01008	-0.02529	0.00545
0.79600	0.00093	-0.00017	0.00075	0.00111	-3.69820	-89.82000	0.08064	-0.01615	0.07834	0.01008	-0.02529	0.00545
0.79800	-0.00024	0.00118	0.00055	0.00135	-3.69820	-89.91000	0.07961	-0.02819	0.05197	0.01224	-0.02190	0.00123
0.80000	-0.00024	0.00118	0.00055	0.00135	-3.60800	-89.73000	0.07961	-0.02819	0.05197	0.01224	-0.02190	0.00123
0.80200	-0.00024	0.00118	0.00055	0.00135	-3.69820	-89.82000	0.07961	-0.02819	0.05197	0.01224	-0.02190	0.00123
0.80400	-0.00024	0.00118	0.00055	0.00135	-3.69820	-89.82000	0.07961	-0.02819	0.05197	0.01224	-0.02190	0.00123
0.80600	-0.00010	0.00004	0.00010	0.00181	-3.51780	-89.55000	0.07138	-0.00730	0.06385	0.01378	-0.02807	-0.00329
0.80800	-0.00010	0.00004	0.00010	0.00181	0.00000	0.00000	0.07138	-0.00730	0.06385	0.01378	-0.02807	-0.00329
0.81000	-0.00010	0.00004	0.00010	0.00181	-3.60800	-89.64000	0.07138	-0.00730	0.06385	0.01378	-0.02807	-0.00329
0.81200	-0.00010	0.00004	0.00010	0.00181	-3.60800	-89.73000	0.07138	-0.00730	0.06385	0.01378	-0.02807	-0.00329
0.81400	-0.00030	0.00134	0.00053	0.00135	-3.69820	-89.73000	0.07056	-0.00895	0.10163	0.01728	-0.02735	0.00185
0.81600	-0.00030	0.00134	0.00053	0.00135	-3.69820	-89.64000	0.07056	-0.00895	0.10163	0.01728	-0.02735	0.00185
0.81800	-0.00030	0.00134	0.00053	0.00135	-3.78840	-89.64000	0.07056	-0.00895	0.10163	0.01728	-0.02735	0.00185
0.82000	-0.00030	0.00134	0.00053	0.00135	-3.69820	-89.55000	0.07056	-0.00895	0.10163	0.01728	-0.02735	0.00185
0.82200	0.00121	-0.00041	0.00060	0.00180	0.00000	0.00000	0.10430	-0.01708	0.05413	0.01162	-0.02982	-0.00093
0.82400	0.00121	-0.00041	0.00060	0.00180	-3.69820	-89.73000	0.10430	-0.01708	0.05413	0.01162	-0.02982	-0.00093
0.82600	0.00121	-0.00041	0.00060	0.00180	-3.69820	-89.64000	0.10430	-0.01708	0.05413	0.01162	-0.02982	-0.00093
0.82800	0.00121	-0.00041	0.00060	0.00180	-3.60800	-89.55000	0.10430	-0.01708	0.05413	0.01162	-0.02982	-0.00093
0.83000	-0.00013	0.00129	0.00055	0.00211	-3.51780	-89.64000	0.06315	-0.01934	0.08359	0.01645	-0.03177	-0.00010
0.83200	-0.00013	0.00129	0.00055	0.00211	-3.60800	-89.64000	0.06315	-0.01934	0.08359	0.01645	-0.03177	-0.00010
0.83400	-0.00013	0.00129	0.00055	0.00211	-3.60800	-89.55000	0.06315	-0.01934	0.08359	0.01645	-0.03177	-0.00010
0.83600	-0.00013	0.00129	0.00055	0.00211	0.00000	0.00000	0.06315	-0.01934	0.08359	0.01645	-0.03177	-0.00010
0.83800	-0.00024	0.00050	0.00060	0.00204	-3.60800	-89.46000	0.07200	-0.00576	0.09068	0.01183	-0.02601	-0.00401
0.84000	-0.00024	0.00050	0.00060	0.00204	-3.51780	-89.64000	0.07200	-0.00576	0.09068	0.01183	-0.02601	-0.00401
0.84200	-0.00024	0.00050	0.00060	0.00204	-3.42760	-89.64000	0.07200	-0.00576	0.09068	0.01183	-0.02601	-0.00401
0.84400	-0.00024	0.00050	0.00060	0.00204	-3.51780	-89.64000	0.07200	-0.00576	0.09068	0.01183	-0.02601	-0.00401
0.84600	-0.00082	0.00106	0.00032	0.00139	-3.60800	-89.73000	0.09782	-0.03375	0.06616	0.01717	-0.02395	0.00411
0.84800	-0.00082	0.00106	0.00032	0.00139	-3.51780	-89.64000	0.09782	-0.03375	0.06616	0.01717	-0.02395	0.00411
0.85000	-0.00082	0.00106	0.00032	0.00139	0.00000	0.00000	0.09782	-0.03375	0.06616	0.01717	-0.02395	0.00411
0.85200	-0.00082	0.00106	0.00032	0.00139	-3.51780	-89.64000	0.09782	-0.03375	0.06616	0.01717	-0.02395	0.00411
0.85400	0.00118	0.00049	0.00028	0.00016	-3.51780	-89.64000	0.05359	-0.02942	0.07526	0.01686	-0.02529	0.00329
0.85600	0.00118	0.00049	0.00028	0.00016	-3.69820	-89.73000	0.05359	-0.02942	0.07526	0.01686	-0.02529	0.00329
0.85800	0.00118	0.00049	0.00028	0.00016	-3.69820	-89.73000	0.05359	-0.02942	0.07526	0.01686	-0.02529	0.00329
0.86000	0.00118	0.00049	0.00028	0.00016	-3.69820	-89.73000	0.05359	-0.02942	0.07526	0.01686	-0.02529	0.00329
0.86200	-0.00021	0.00121	0.00039	0.00185	-3.60800	-89.73000	0.07869	0.00494	0.07803	0.01440	-0.02334	-0.00021
0.86400	-0.00021	0.00121	0.00039	0.00185	0.00000	0.00000	0.07869	0.00494	0.07803	0.01440	-0.02334	-0.00021
0.86600	-0.00021	0.00121	0.00039	0.00185	-3.60800	-89.73000	0.07869	0.00494	0.07803	0.01440	-0.02334	-0.00021
0.86800	-0.00021	0.00121	0.00039	0.00185	-3.69820	-89.73000	0.07869	0.00494	0.07803	0.01440	-0.02334	-0.00021
0.87000	-0.00037	0.00041	0.00057	0.00130	-3.69820	-89.82000	0.09226	-0.01307	0.06585	0.01697	-0.02529	0.00082
0.87200	-0.00037	0.00041	0.00057	0.00130	-3.78840	-89.82000	0.09226	-0.01307	0.06585	0.01697	-0.02529	0.00082
0.87400	-0.00037	0.00041	0.00057	0.00130	-3.87860	-89.73000	0.09226	-0.01307	0.06585	0.01697	-0.02529	0.00082
0.87600	-0.00037	0.00041	0.00057	0.00130	0.00000	0.00000	0.09226	-0.01307	0.06585	0.01697	-0.02529	0.00082
0.87800	-0.00017	0.00087	0.00048	0.00110	0.00000	0.00000	0.07015	-0.00525	0.08189	0.01820	-0.02313	0.00195
0.88000	-0.00017	0.00087	0.00048	0.00110	-3.78840	-89.64000	0.07015	-0.00525	0.08189	0.01820	-0.02313	0.00195
0.88200	-0.00017	0.00087	0.00048	0.00110	-3.78840	-89.73000	0.07015	-0.00525	0.08189	0.01820	-0.02313	0.00195
0.88400	-0.00017	0.00087	0.00048	0.00110	-3.78840	-89.82000	0.07015	-0.00525	0.08189	0.01820	-0.02313	0.00195
0.88600	0.00126	0.00039	0.00048	0.00156	-3.69820	-89.73000	0.08188	0.00514	0.07294	0.01481	-0.02694	0.00442
0.88800	0.00126	0.00039	0.00048	0.00156	-3.69820	-89.82000	0.08188	0.00514	0.07294	0.01481	-0.02694	0.00442
0.89000	0.00126	0.00039	0.00048	0.00156	-3.69820	0.00000	0.08188	0.00514	0.07294	0.01481	-0.02694	0.00442
0.89200	0.00126	0.00039	0.00048	0.00156	-3.69820	-89.82000	0.08188	0.00514	0.07294	0.01481	-0.02694	0.00442
0.89400	-0.00024	0.00057	0.00061	0.00092	-3.69820	-89.82000	0.08249	-0.04794	0.07464	0.01532	-0.02406	0.00298
0.89600	-0.00024	0.00057	0.00061	0.00092	-3.69820	-89.82000	0.08249	-0.04794	0.07464	0.01532	-0.02406	0.00298
0.89800	-0.00024	0.00057	0.00061	0.00092	-3.69820	-89.82000	0.08249	-0.04794	0.07464	0.01532	-0.02406	0.00298
0.90000	-0.00024	0.00057	0.00061	0.00092	-3.69820	-89.82000	0.08249	-0.04794	0.07464	0.01532	-0.02406	0.00298
0.90200	-0.00029	0.00067	0.00056	0.00146	-3.69820	-89.64000	0.06789	-0.03210	0.07880	0.01008	-0.02221	0.00185
0.90400	-0.00029	0.00067	0.00056	0.00146	-3.60800	-89.73000	0.06789	-0.03210	0.07880	0.01008	-0.02221	0.00185
0.90600	-0.00029	0.00067	0.00056	0.00146	0.00000	0.00000	0.06789	-0.03210	0.07880	0.01008	-0.02221	0.00185
0.90800	-0.00029	0.00067	0.00056	0.00146	-3.60800	-89.73000	0.06789	-0.03210	0.07880	0.01008	-0.02221	0.00185
0.91000	-0.00023	0.00037	0.00062	0.00122	-3.60800	-89.82000	0.05153	-0.01595	0.09176	0.01100	-0.02365	0.00319
0.91200	-0.00023	0.00037	0.00062	0.00122	-3.60800	-89.82000	0.05153	-0.01595	0.09176	0.01100	-0.02365	0.00319
0.91400	-0.00023	0.00037	0.00062	0.00122	-3.69820	-89.82000	0.05153	-0.01595	0.09176	0.01100	-0.02365	0.00319
0.91600	-0.00023	0.00037	0.00062	0.00122	-3.69820	-89.91000	0.05153	-0.01595	0.09176	0.01100	-0.02365	0.00319
0.91800	0.00161	0.00066	0.00025	0.00122	-3.60800	-89.73000	0.08311	-0.03230	0.06199	0.01584	-0.02519	0.00103
0.92000	0.00161	0.00066	0.00025	0.00122	0.00000	0.00000	0.08311	-0.03230	0.06199	0.01584	-0.02519	0.00103
0.92200	0.00161	0.00066	0.00025	0.00122	-3.60800	-89.73000	0.08311	-0.03230	0.06199	0.01584	-0.02519	0.00103
0.92400	0.00161	0.00066	0.00025	0.00122	-3.60800	-89.73000	0.08311	-0.03230	0.06199	0.01584	-0.02519	0.00103
0.92600	-0.00033	0.00035	0.00063	0.00131	-3.51780	-89.91000	0.08383	-0.01481	0.09268	0.00452	-0.01151	-0.00813
0.92800	-0.00033	0.00035	0.00063	0.00131	-3.60800	-89.82000	0.08383	-0.01481	0.09268	0.00452	-0.01151	-0.00813
0.93000	-0.00033	0.00035	0.00063	0.00131	-3.60800	-89.82000	0.08383	-0.01481	0.09268	0.00452	-0.01151	-0.00813
0.93200	-0.00033	0.00035	0.00063	0.00131	-3.60800	-89.73000	0.08383	-0.01481	0.09268	0.00452	-0.01151	-0.00813
0.93400	-0.00054	0.00096	0.00054	0.00174	0.00000	0.00000	0.06295	0.00340	0.08837	0.01594	-0.02745	0.00051
0.93600	-0.00054	0.00096	0.00054	0.00174	-3.60800	-89.73000	0.06295	0.00340	0.08837	0.01594	-0.02745	0.00051
0.93800	-0.00054	0.00096	0.00054	0.00174	-3.60800	-89.64000	0.06295	0.00340	0.08837	0.01594	-0.02745	0.00051
0.94000	-0.00054	0.00096	0.00054	0.00174	-3.60800	-89.64000	0.06295	0.00340	0.08837	0.01594	-0.02745	0.00051
0.94200	-0.00012	0.00048	0.00041	0.00098	-3.60800	-89.73000	0.10492	-0.01893	0.05382	0.01419	-0.02951	0.00504
0.94400	-0.00012	0.00048	0.00041	0.00098	-3.51780	-89.82000	0.10492	-0.01893	0.05382	0.01419	-0.02951	0.00504
0.94600	-0.00012	0.00048	0.00041	0.00098	-3.51780	-89.82000	0.10492	-0.01893	0.05382	0.01419	-0.02951	0.00504
0.94800	-0.00012	0.00048	0.00041	0.00098	0.00000	0.00000	0.10492	-0.01893	0.05382	0.01419	-0.02951	0.00504
0.95000	0.00137	0.00130	0.00069	0.00135	-3.60800	-89.91000	0.09124	-0.03179	0.08574	0.01728	-0.03146	0.00041
0.95200	0.00137	0.00130	0.00069	0.00135	-3.69820	-89.91000	0.09124	-0.03179	0.08574	0.01728	-0.03146	0.00041
0.95400	0.00137	0.00130	0.00069	0.00135	-3.69820	-89.91000	0.09124	-0.03179	0.08574	0.01728	-0.03146	0.00041
0.95600	0.00137	0.00130	0.00069	0.00135	-3.78840	-89.91000	0.09124	-0.03179	0.08574	0.01728	-0.03146	0.00041
0.95800	-0.00005	0.00028	0.00048	0.00121	-3.78840	-89.91000	0.08218	-0.00412	0.07464	0.01234	-0.03156	0.00473
0.96000	-0.00005	0.00028	0.00048	0.00121	0.00000	0.00000	0.08218	-0.00412	0.07464	0.01234	-0.03156	0.00473
0.96200	-0.00005	0.00028	0.00048	0.00121	0.00000	0.00000	0.08218	-0.00412	0.07464	0.01234	-0.03156	0.00473
0.96400	-0.00005	0.00028	0.00048	0.00121	-3.69820	-89.91000	0.08218	-0.00412	0.07464	0.01234	-0.03156	0.00473
0.96600	-0.00055	0.00100	0.00038	0.00002	-3.78840	-89.82000	0.10378	-0.03467	0.04195	0.01378	-0.03167	0.00237
0.96800	-0.00055	0.00100	0.00038	0.00002	-3.69820	-89.73000	0.10378	-0.03467	0.04195	0.01378	-0.03167	0.00237
0.97000	-0.00055	0.00100	0.00038	0.00002	-3.69820	-89.82000	0.10378	-0.03467	0.04195	0.01378	-0.03167	0.00237
0.97200	-0.00055	0.00100	0.00038	0.00002	-3.69820	-89.73000	0.10378	-0.03467	0.04195	0.01378	-0.03167	0.00237
0.97400	-0.00035	0.00020	0.00048	-0.00005	-3.69820	-89.64000	0.05606	-0.03971	0.08605	0.01460	-0.02457	0.00401
0.97600	-0.00035	0.00020	0.00048	-0.00005	0.00000	0.00000	0.05606	-0.03971	0.08605	0.01460	-0.02457	0.00401
0.97800	-0.00035	0.00020	0.00048	-0.00005	-3.78840	-89.73000	0.05606	-0.03971	0.08605	0.01460	-0.02457	0.00401
0.98000	-0.00035	0.00020	0.00048	-0.00005	-3.69820	-89.73000	0.05606	-0.03971	0.08605	0.01460	-0.02457	0.00401
0.98200	0.00078	0.00135	0.00049	0.00146	-3.69820	-89.73000	0.06357	-0.00854	0.10672	0.01193	-0.01943	0.00165
0.98400	0.00078	0.00135	0.00049	0.00146	-3.60800	-89.73000	0.06357	-0.00854	0.10672	0.01193	-0.01943	0.00165
0.98600	0.00078	0.00135	0.00049	0.00146	-3.51780	-89.82000	0.06357	-0.00854	0.10672	0.01193	-0.01943	0.00165
0.98800	0.00078	0.00135	0.00049	0.00146	-3.60800	-89.64000	0.06357	-0.00854	0.10672	0.01193	-0.01943	0.00165
0.99000	-0.00009	0.00044	0.00049	0.00179	0.00000	0.00000	0.06974	-0.02891	0.05536	0.01460	-0.02632	0.00381
0.99200	-0.00009	0.00044	0.00049	0.00179	-3.60800	-89.73000	0.06974	-0.02891	0.05536	0.01460	-0.02632	0.00381
0.99400	-0.00009	0.00044	0.00049	0.00179	-3.60800	-89.73000	0.06974	-0.02891	0.05536	0.01460	-0.02632	0.00381
0.99600	-0.00009	0.00044	0.00049	0.00179	-3.51780	-89.64000	0.06974	-0.02891	0.05536	0.01460	-0.02632	0.00381
0.99800	-0.00034	0.00115	0.00039	0.00144	-3.51780	-89.73000	0.06213	-0.02202	0.09407	0.01758	-0.02529	-0.00031
1.00000	-0.00034	0.00115	0.00039	0.00144	-3.60800	-89.64000	0.06213	-0.02202	0.09407	0.01758	-0.02529	-0.00031
1.00200	-0.00034	0.00115	0.00039	0.00144	-3.51780	-89.82000	0.06213	-0.02202	0.09407	0.01758	-0.02529	-0.00031
1.00400	-0.00034	0.00115	0.00039	0.00144	0.00000	0.00000	0.06213	-0.02202	0.09407	0.01758	-0.02529	-0.00031
1.00600	-0.00069	0.00028	0.00039	0.00118	-3.42760	-89.82000	0.07704	0.02047	0.09669	0.01964	-0.02889	-0.00195
1.00800	-0.00069	0.00028	0.00039	0.00118	-3.51780	-89.82000	0.07704	0.02047	0.09669	0.01964	-0.02889	-0.00195
1.01000	-0.00069	0.00028	0.00039	0.00118	-3.51780	-89.73000	0.07704	0.02047	0.09669	0.01964	-0.02889	-0.00195
1.01200	-0.00069	0.00028	0.00039	0.00118	-3.51780	-89.73000	0.07704	0.02047	0.09669	0.01964	-0.02889	-0.00195
1.01400	0.00030	0.00137	0.00042	0.00123	-3.69820	-89.55000	0.07704	0.02047	0.09669	0.01964	-0.02889	-0.00195
1.01600	0.00023	0.00060	0.00060	0.00154	-3.78840	-89.64000	0.09206	-0.01831	0.05320	0.01501	-0.03033	0.00010
1.01800	0.00023	0.00060	0.00060	0.00154	0.00000	0.00000	0.09206	-0.01831	0.05320	0.01501	-0.03033	0.00010
1.02000	0.00023	0.00060	0.00060	0.00154	-3.78840	-89.64000	0.09206	-0.01831	0.05320	0.01501	-0.03033	0.00010
1.02200	0.00023	0.00060	0.00060	0.00154	-3.69820	-89.73000	0.09206	-0.01831	0.05320	0.01501	-0.03033	0.00010
1.02400	-0.00056	-0.00006	0.00049	0.00095	-3.60800	-89.64000	0.08290	-0.02130	0.07772	0.01090	-0.02951	0.00309
1.02600	-0.00056	-0.00006	0.00049	0.00095	-3.60800	-89.64000	0.08290	-0.02130	0.07772	0.01090	-0.02951	0.00309
1.02800	-0.00056	-0.00006	0.00049	0.00095	-3.69820	-89.64000	0.08290	-0.02130	0.07772	0.01090	-0.02951	0.00309
1.03000	-0.00056	-0.00006	0.00049	0.00095	-3.60800	-89.73000	0.08290	-0.02130	0.07772	0.01090	-0.02951	0.00309
1.03200	-0.00065	0.00138	0.00040	0.00201	0.00000	0.00000	0.06511	-0.02665	0.08652	0.01326	-0.02817	-0.00010
1.03400	-0.00065	0.00138	0.00040	0.00201	-3.51780	-89.73000	0.06511	-0.02665	0.08652	0.01326	-0.02817	-0.00010
1.03600	-0.00065	0.00138	0.00040	0.00201	-3.60800	-89.82000	0.06511	-0.02665	0.08652	0.01326	-0.02817	-0.00010
1.03800	-0.00065	0.00138	0.00040	0.00201	-3.60800	-89.91000	0.06511	-0.02665	0.08652	0.01326	-0.02817	-0.00010
1.04000	0.00085	0.00020	0.00071	0.00131	-3.60800	-89.82000	0.06511	-0.02665	0.08652	0.01326	-0.02817	-0.00010
1.04200	0.00013	0.00204	0.00020	-0.00010	-3.60800	-89.73000	0.08805	-0.04650	0.03562	0.01049	-0.02375	-0.00134
1.04400	0.00013	0.00204	0.00020	-0.00010	-3.51780	-89.73000	0.08805	-0.04650	0.03562	0.01049	-0.02375	-0.00134
1.04600	0.00013	0.00204	0.00020	-0.00010	0.00000	0.00000	0.08805	-0.04650	0.03562	0.01049	-0.02375	-0.00134
1.04800	0.00013	0.00204	0.00020	-0.00010	-3.60800	-89.73000	0.08805	-0.04650	0.03562	0.01049	-0.02375	-0.00134
1.05000	0.00007	0.00026	0.00042	0.00054	-3.60800	-89.64000	0.04454	-0.02510	0.09438	0.01224	-0.02704	0.00072
1.05200	0.00007	0.00026	0.00042	0.00054	-3.69820	-89.73000	0.04454	-0.02510	0.09438	0.01224	-0.02704	0.00072
1.05400	0.00007	0.00026	0.00042	0.00054	-3.69820	-89.73000	0.04454	-0.02510	0.09438	0.01224	-0.02704	0.00072
1.05600	0.00007	0.00026	0.00042	0.00054	-3.60800	-89.73000	0.04454	-0.02510	0.09438	0.01224	-0.02704	0.00072
1.05800	-0.00065	0.00088	0.00059	0.00090	-3.51780	-89.82000	0.07118	0.00833	0.06755	0.02180	-0.02509	0.00134
1.06000	-0.00065	0.00088	0.00059	0.00090	0.00000	0.00000	0.07118	0.00833	0.06755	0.02180	-0.02509	0.00134
1.06200	-0.00065	0.00088	0.00059	0.00090	-3.60800	-89.82000	0.07118	0.00833	0.06755	0.02180	-0.02509	0.00134
1.06400	-0.00065	0.00088	0.00059	0.00090	-3.60800	-89.73000	0.07118	0.00833	0.06755	0.02180	-0.02509	0.00134
1.06600	-0.00062	0.00050	0.00022	0.00018	-3.69820	-89.73000	0.09545	-0.01307	0.04457	0.01563	-0.03012	0.00638
1.06800	-0.00062	0.00050	0.00022	0.00018	-3.60800	-89.82000	0.09545	-0.01307	0.04457	0.01563	-0.03012	0.00638
1.07000	-0.00062	0.00050	0.00022	0.00018	-3.60800	-89.82000	0.09545	-0.01307	0.04457	0.01563	-0.03012	0.00638
1.07200	-0.00062	0.00050	0.00022	0.00018	-3.60800	-89.82000	0.09545	-0.01307	0.04457	0.01563	-0.03012	0.00638
1.07400	0.00094	0.00085	0.00036	0.00086	0.00000	0.00000	0.06480	0.00298	0.08806	0.01892	-0.03341	0.00165
1.07600	0.00094	0.00085	0.00036	0.00086	-3.51780	-89.82000	0.06480	0.00298	0.08806	0.01892	-0.03341	0.00165
1.07800	0.00094	0.00085	0.00036	0.00086	-3.69820	-89.73000	0.06480	0.00298	0.08806	0.01892	-0.03341	0.00165
1.08000	0.00094	0.00085	0.00036	0.00086	-3.60800	-89.82000	0.06480	0.00298	0.08806	0.01892	-0.03341	0.00165
1.08200	0.00002	0.00046	0.00051	0.00136	-3.60800	-89.82000	0.10193	0.00761	0.08945	0.01491	-0.02673	0.00257
1.08400	0.00002	0.00046	0.00051	0.00136	-3.42760	-89.91000	0.10193	0.00761	0.08945	0.01491	-0.02673	0.00257
1.08600	0.00002	0.00046	0.00051	0.00136	-3.60800	-89.82000	0.10193	0.00761	0.08945	0.01491	-0.02673	0.00257
1.08800	0.00002	0.00046	0.00051	0.00136	0.00000	0.00000	0.10193	0.00761	0.08945	0.01491	-0.02673	0.00257
1.09000	-0.00069	0.00073	0.00004	0.00107	-3.51780	-89.82000	0.10481	-0.05401	0.04010	0.01563	-0.02910	-0.00319
1.09200	-0.00069	0.00073	0.00004	0.00107	-3.60800	-89.82000	0.10481	-0.05401	0.04010	0.01563	-0.02910	-0.00319
1.09400	-0.00069	0.00073	0.00004	0.00107	-3.60800	-89.82000	0.10481	-0.05401	0.04010	0.01563	-0.02910	-0.00319
1.09600	-0.00069	0.00073	0.00004	0.00107	-3.60800	-89.82000	0.10481	-0.05401	0.04010	0.01563	-0.02910	-0.00319
1.09800	-0.00061	0.00078	0.00050	0.00100	-3.60800	-89.73000	0.06562	-0.03292	0.08251	0.01440	-0.03074	0.00370
1.10000	-0.00061	0.00078	0.00050	0.00100	-3.60800	-89.73000	0.06562	-0.03292	0.08251	0.01440	-0.03074	0.00370
1.10200	-0.00061	0.00078	0.00050	0.00100	0.00000	0.00000	0.06562	-0.03292	0.08251	0.01440	-0.03074	0.00370
1.10400	-0.00061	0.00078	0.00050	0.00100	-3.69820	-89.73000	0.06562	-0.03292	0.08251	0.01440	-0.03074	0.00370
1.10600	0.00119	0.00104	0.00052	0.00136	-3.60800	-89.64000	0.08373	-0.01235	0.07757	0.00956	-0.02745	0.00607
1.10800	0.00119	0.00104	0.00052	0.00136	-3.60800	-89.73000	0.08373	-0.01235	0.07757	0.00956	-0.02745	0.00607
1.11000	0.00119	0.00104	0.00052	0.00136	-3.60800	-89.73000	0.08373	-0.01235	0.07757	0.00956	-0.02745	0.00607
1.11200	0.00119	0.00104	0.00052	0.00136	-3.60800	-89.82000	0.08373	-0.01235	0.07757	0.00956	-0.02745	0.00607
1.11400	-0.00043	0.00029	0.00034	0.00123	-3.60800	-89.82000	0.08959	-0.04321	0.05197	0.01481	-0.02673	-0.00309
1.11600	-0.00043	0.00029	0.00034	0.00123	0.00000	0.00000	0.08959	-0.04321	0.05197	0.01481	-0.02673	-0.00309
1.11800	-0.00043	0.00029	0.00034	0.00123	-3.69820	-89.82000	0.08959	-0.04321	0.05197	0.01481	-0.02673	-0.00309
1.12000	-0.00043	0.00029	0.00034	0.00123	-3.69820	-89.82000	0.08959	-0.04321	0.05197	0.01481	-0.02673	-0.00309
1.12200	-0.00046	0.00083	0.00052	0.00127	-3.60800	-89.73000	0.06377	0.00586	0.07464	0.01522	-0.02313	0.00453
1.12400	-0.00046	0.00083	0.00052	0.00127	-3.60800	-89.73000	0.06377	0.00586	0.07464	0.01522	-0.02313	0.00453
1.12600	-0.00046	0.00083	0.00052	0.00127	-3.60800	-89.73000	0.06377	0.00586	0.07464	0.01522	-0.02313	0.00453
1.12800	-0.00046	0.00083	0.00052	0.00127	-3.60800	-89.73000	0.06377	0.00586	0.07464	0.01522	-0.02313	0.00453
1.13000	-0.00037	0.00030	0.00051	0.00154	0.00000	0.00000	0.06871	0.01420	0.08867	0.01296	-0.02827	0.00226
1.13200	-0.00037	0.00030	0.00051	0.00154	-3.69820	-89.73000	0.06871	0.01420	0.08867	0.01296	-0.02827	0.00226
1.13400	-0.00037	0.00030	0.00051	0.00154	-3.69820	-89.64000	0.06871	0.01420	0.08867	0.01296	-0.02827	0.00226
1.13600	-0.00037	0.00030	0.00051	0.00154	-3.60800	-89.55000	0.06871	0.01420	0.08867	0.01296	-0.02827	0.00226
1.13800	0.00099	0.00162	0.00027	0.00117	-3.60800	-89.64000	0.06881	-0.02325	0.02776	0.01871	-0.02056	-0.00041
1.14000	0.00099	0.00162	0.00027	0.00117	-3.69820	-89.55000	0.06881	-0.02325	0.02776	0.01871	-0.02056	-0.00041
1.14200	0.00099	0.00162	0.00027	0.00117	-3.60800	-89.55000	0.06881	-0.02325	0.02776	0.01871	-0.02056	-0.00041
1.14400	0.00099	0.00162	0.00027	0.00117	0.00000	0.00000	0.06881	-0.02325	0.02776	0.01871	-0.02056	-0.00041
1.14600	-0.00061	0.00027	0.00049	-0.00003	-3.51780	-89.55000	0.06881	-0.00545	0.06030	0.02632	-0.03064	0.01070
1.14800	-0.00061	0.00027	0.00049	-0.00003	-3.60800	-89.64000	0.06881	-0.00545	0.06030	0.02632	-0.03064	0.01070
1.15000	-0.00061	0.00027	0.00049	-0.00003	-3.51780	-89.73000	0.06881	-0.00545	0.06030	0.02632	-0.03064	0.01070
1.15200	-0.00061	0.00027	0.00049	-0.00003	-3.60800	-89.91000	0.06881	-0.00545	0.06030	0.02632	-0.03064	0.01070
1.15400	-0.00059	0.00130	0.00048	0.00126	-3.51780	-89.73000	0.05606	-0.01173	0.07294	0.01789	-0.02334	0.00134
1.15600	-0.00059	0.00130	0.00048	0.00126	-3.69820	-89.73000	0.05606	-0.01173	0.07294	0.01789	-0.02334	0.00134
1.15800	-0.00059	0.00130	0.00048	0.00126	0.00000	0.00000	0.05606	-0.01173	0.07294	0.01789	-0.02334	0.00134
1.16000	-0.00059	0.00130	0.00048	0.00126	-3.69820	-89.73000	0.05606	-0.01173	0.07294	0.01789	-0.02334	0.00134
1.16200	-0.00017	-0.00017	0.00064	0.00140	-3.60800	-89.64000	0.07869	-0.04023	0.04734	0.01625	-0.01748	0.00206
1.16400	-0.00017	-0.00017	0.00064	0.00140	-3.51780	-89.73000	0.07869	-0.04023	0.04734	0.01625	-0.01748	0.00206
1.16600	-0.00017	-0.00017	0.00064	0.00140	-3.51780	-89.82000	0.07869	-0.04023	0.04734	0.01625	-0.01748	0.00206
1.16800	-0.00017	-0.00017	0.00064	0.00140	-3.60800	-89.82000	0.07869	-0.04023	0.04734	0.01625	-0.01748	0.00206
1.17000	0.00090	0.00098	0.00042	0.00123	-3.60800	-89.73000	0.05019	-0.02870	0.10009	0.01697	-0.02138	0.00339
1.17200	0.00090	0.00098	0.00042	0.00123	0.00000	0.00000	0.05019	-0.02870	0.10009	0.01697	-0.02138	0.00339
1.17400	0.00090	0.00098	0.00042	0.00123	-3.51780	-89.73000	0.05019	-0.02870	0.10009	0.01697	-0.02138	0.00339
1.17600	0.00090	0.00098	0.00042	0.00123	-3.60800	-89.64000	0.05019	-0.02870	0.10009	0.01697	-0.02138	0.00339
1.17800	-0.00056	-0.00004	0.00051	0.00071	-3.60800	-89.73000	0.05945	-0.01060	0.09639	0.01656	-0.02056	-0.00422
1.18000	-0.00056	-0.00004	0.00051	0.00071	-3.60800	-89.82000	0.05945	-0.01060	0.09639	0.01656	-0.02056	-0.00422
1.18200	-0.00056	-0.00004	0.00051	0.00071	-3.60800	-89.91000	0.05945	-0.01060	0.09639	0.01656	-0.02056	-0.00422
1.18400	-0.00056	-0.00004	0.00051	0.00071	-3.60800	-89.82000	0.05945	-0.01060	0.09639	0.01656	-0.02056	-0.00422
1.18600	-0.00054	0.00138	0.00061	0.00222	0.00000	0.00000	0.09412	-0.04146	0.06600	0.01213	-0.02457	-0.00134
1.18800	-0.00054	0.00138	0.00061	0.00222	-3.60800	-89.82000	0.09412	-0.04146	0.06600	0.01213	-0.02457	-0.00134
1.19000	-0.00054	0.00138	0.00061	0.00222	-3.78840	-89.82000	0.09412	-0.04146	0.06600	0.01213	-0.02457	-0.00134
1.19200	-0.00054	0.00138	0.00061	0.00222	-3.78840	-89.73000	0.09412	-0.04146	0.06600	0.01213	-0.02457	-0.00134
1.19400	0.00011	-0.00015	0.00044	0.00177	-3.78840	-89.73000	0.06593	-0.00782	0.09639	0.01635	-0.02961	0.00226
1.19600	0.00011	-0.00015	0.00044	0.00177	-3.78840	-89.82000	0.06593	-0.00782	0.09639	0.01635	-0.02961	0.00226
1.19800	0.00011	-0.00015	0.00044	0.00177	-3.60800	-89.82000	0.06593	-0.00782	0.09639	0.01635	-0.02961	0.00226
1.20000	0.00011	-0.00015	0.00044	0.00177	0.00000	0.00000	0.06593	-0.00782	0.09639	0.01635	-0.02961	0.00226
1.20200	0.00057	0.00074	0.00067	0.00196	-3.60800	-89.73000	0.08620	0.02695	0.08513	0.01800	-0.02848	0.00329
1.20400	0.00057	0.00074	0.00067	0.00196	-3.51780	-89.73000	0.08620	0.02695	0.08513	0.01800	-0.02848	0.00329
1.20600	0.00057	0.00074	0.00067	0.00196	-3.60800	-89.82000	0.08620	0.02695	0.08513	0.01800	-0.02848	0.00329
1.20800	0.00057	0.00074	0.00067	0.00196	-3.51780	-89.73000	0.08620	0.02695	0.08513	0.01800	-0.02848	0.00329
1.21000	-0.00067	0.00018	0.00049	0.00239	-3.69820	-89.91000	0.09422	-0.00813	0.05999	0.01584	-0.03043	0.00566
1.21200	-0.00067	0.00018	0.00049	0.00239	-3.60800	-89.91000	0.09422	-0.00813	0.05999	0.01584	-0.03043	0.00566
1.21400	-0.00067	0.00018	0.00049	0.00239	0.00000	0.00000	0.09422	-0.00813	0.05999	0.01584	-0.03043	0.00566
1.21600	-0.00067	0.00018	0.00049	0.00239	-3.60800	-89.82000	0.09422	-0.00813	0.05999	0.01584	-0.03043	0.00566
1.21800	-0.00062	0.00157	0.00073	0.00141	-3.69820	-89.91000	0.07334	-0.01564	0.06832	0.02077	-0.02673	0.00504
1.22000	-0.00062	0.00157	0.00073	0.00141	-3.78840	-89.73000	0.07334	-0.01564	0.06832	0.02077	-0.02673	0.00504
1.22200	-0.00062	0.00157	0.00073	0.00141	-3.78840	-89.73000	0.07334	-0.01564	0.06832	0.02077	-0.02673	0.00504
1.22400	-0.00062	0.00157	0.00073	0.00141	-3.78840	-89.73000	0.07334	-0.01564	0.06832	0.02077	-0.02673	0.00504
1.22600	-0.00002	0.00009	0.00057	0.00090	-3.60800	-89.73000	0.08887	-0.00072	0.08158	0.01429	-0.02724	0.00586
1.22800	-0.00002	0.00009	0.00057	0.00090	0.00000	0.00000	0.08887	-0.00072	0.08158	0.01429	-0.02724	0.00586
1.23000	-0.00002	0.00009	0.00057	0.00090	-3.69820	-89.82000	0.08887	-0.00072	0.08158	0.01429	-0.02724	0.00586
1.23200	-0.00002	0.00009	0.00057	0.00090	-3.69820	-89.73000	0.08887	-0.00072	0.08158	0.01429	-0.02724	0.00586
1.23400	0.00022	0.00150	0.00034	0.00160	-3.69820	-89.73000	0.09185	-0.04990	0.04488	0.01666	-0.02899	0.00360
1.23600	0.00022	0.00150	0.00034	0.00160	-3.69820	-89.64000	0.09185	-0.04990	0.04488	0.01666	-0.02899	0.00360
1.23800	0.00022	0.00150	0.00034	0.00160	-3.87860	-89.82000	0.09185	-0.04990	0.04488	0.01666	-0.02899	0.00360
1.24000	0.00022	0.00150	0.00034	0.00160	-3.69820	-89.82000	0.09185	-0.04990	0.04488	0.01666	-0.02899	0.00360
1.24200	-0.00035	0.00004	0.00044	0.00182	0.00000	0.00000	0.08465	-0.01831	0.08019	0.01800	-0.03496	0.00329
1.24400	-0.00035	0.00004	0.00044	0.00182	-3.69820	-89.73000	0.08465	-0.01831	0.08019	0.01800	-0.03496	0.00329
1.24600	-0.00035	0.00004	0.00044	0.00182	-3.60800	-89.64000	0.08465	-0.01831	0.08019	0.01800	-0.03496	0.00329
1.24800	-0.00035	0.00004	0.00044	0.00182	-3.69820	-89.73000	0.08465	-0.01831	0.08019	0.01800	-0.03496	0.00329
1.25000	-0.00069	0.00190	0.00015	0.00181	-3.69820	-89.73000	0.08959	0.00082	0.11011	0.01717	-0.03208	-0.00010
1.25200	-0.00069	0.00190	0.00015	0.00181	-3.60800	-89.73000	0.08959	0.00082	0.11011	0.01717	-0.03208	-0.00010
1.25400	-0.00069	0.00190	0.00015	0.00181	-3.51780	-89.82000	0.08959	0.00082	0.11011	0.01717	-0.03208	-0.00010
1.25600	-0.00069	0.00190	0.00015	0.00181	0.00000	0.00000	0.08959	0.00082	0.11011	0.01717	-0.03208	-0.00010
1.25800	0.00033	0.00010	0.00027	0.00148	-3.51780	-89.82000	0.09576	-0.02593	0.07757	0.01522	-0.02622	0.00051
1.26000	0.00033	0.00010	0.00027	0.00148	-3.51780	-89.82000	0.09576	-0.02593	0.07757	0.01522	-0.02622	0.00051
1.26200	0.00033	0.00010	0.00027	0.00148	-3.60800	-89.82000	0.09576	-0.02593	0.07757	0.01522	-0.02622	0.00051
1.26400	0.00033	0.00010	0.00027	0.00148	-3.60800	-89.91000	0.09576	-0.02593	0.07757	0.01522	-0.02622	0.00051
1.26600	-0.00021	0.00166	0.00038	0.00118	-3.51780	-89.73000	0.08188	-0.02562	0.08867	0.01357	-0.02889	0.00288
1.26800	-0.00021	0.00166	0.00038	0.00118	-3.51780	-89.64000	0.08188	-0.02562	0.08867	0.01357	-0.02889	0.00288
1.27000	-0.00021	0.00166	0.00038	0.00118	0.00000	0.00000	0.08188	-0.02562	0.08867	0.01357	-0.02889	0.00288
1.27200	-0.00021	0.00166	0.00038	0.00118	-3.60800	-89.64000	0.08188	-0.02562	0.08867	0.01357	-0.02889	0.00288
1.27400	-0.00023	0.00012	0.00054	0.00178	-3.51780	-89.73000	0.04906	-0.01677	0.09268	0.01573	-0.02221	-0.00093
1.27600	-0.00023	0.00012	0.00054	0.00178	-3.51780	-89.73000	0.04906	-0.01677	0.09268	0.01573	-0.02221	-0.00093
1.27800	-0.00023	0.00012	0.00054	0.00178	-3.60800	-89.73000	0.04906	-0.01677	0.09268	0.01573	-0.02221	-0.00093
1.28000	-0.00023	0.00012	0.00054	0.00178	-3.69820	-89.73000	0.04906	-0.01677	0.09268	0.01573	-0.02221	-0.00093
1.28200	-0.00039	0.00118	0.00038	0.00229	-3.78840	-89.55000	0.07406	-0.04599	0.06323	0.01563	-0.02231	0.00319
1.28400	-0.00039	0.00118	0.00038	0.00229	0.00000	0.00000	0.07406	-0.04599	0.06323	0.01563	-0.02231	0.00319
1.28600	-0.00039	0.00118	0.00038	0.00229	-3.78840	-89.73000	0.07406	-0.04599	0.06323	0.01563	-0.02231	0.00319
1.28800	-0.00039	0.00118	0.00038	0.00229	-3.69820	-89.82000	0.07406	-0.04599	0.06323	0.01563	-0.02231	0.00319
1.29000	0.00055	-0.00005	0.00045	0.00270	-3.69820	-89.73000	0.04546	-0.04074	0.08420	0.01255	-0.01881	0.00267
1.29200	0.00055	-0.00005	0.00045	0.00270	-3.69820	-89.73000	0.04546	-0.04074	0.08420	0.01255	-0.01881	0.00267
1.29400	0.00055	-0.00005	0.00045	0.00270	-3.60800	-89.82000	0.04546	-0.04074	0.08420	0.01255	-0.01881	0.00267
1.29600	0.00055	-0.00005	0.00045	0.00270	-3.69820	-89.82000	0.04546	-0.04074	0.08420	0.01255	-0.01881	0.00267
1.29800	-0.00034	0.00107	0.00021	0.00086	0.00000	0.00000	0.03651	0.00566	0.08682	0.01686	-0.01974	0.00051
1.30000	-0.00034	0.00107	0.00021	0.00086	-3.51780	-89.91000	0.03651	0.00566	0.08682	0.01686	-0.01974	0.00051
1.30200	-0.00034	0.00107	0.00021	0.00086	-3.51780	-89.82000	0.03651	0.00566	0.08682	0.01686	-0.01974	0.00051
1.30400	-0.00034	0.00107	0.00021	0.00086	-3.51780	-89.82000	0.03651	0.00566	0.08682	0.01686	-0.01974	0.00051
1.30600	-0.00051	-0.00022	0.00041	0.00059	-3.51780	-89.82000	0.08537	-0.01687	0.04256	0.00751	-0.01912	0.00525
1.30800	-0.00051	-0.00022	0.00041	0.00059	-3.60800	-89.73000	0.08537	-0.01687	0.04256	0.00751	-0.01912	0.00525
1.31000	-0.00051	-0.00022	0.00041	0.00059	-3.69820	-89.64000	0.08537	-0.01687	0.04256	0.00751	-0.01912	0.00525
1.31200	-0.00051	-0.00022	0.00041	0.00059	0.00000	0.00000	0.08537	-0.01687	0.04256	0.00751	-0.01912	0.00525
1.31400	-0.00063	0.00105	0.00059	0.00184	-3.78840	-89.55000	0.05585	-0.03025	0.09207	0.01213	-0.02755	0.00483
1.31600	-0.00063	0.00105	0.00059	0.00184	-3.78840	-89.55000	0.05585	-0.03025	0.09207	0.01213	-0.02755	0.00483
1.31800	-0.00063	0.00105	0.00059	0.00184	-3.69820	-89.64000	0.05585	-0.03025	0.09207	0.01213	-0.02755	0.00483
1.32000	-0.00063	0.00105	0.00059	0.00184	-3.69820	-89.64000	0.05585	-0.03025	0.09207	0.01213	-0.02755	0.00483
1.32200	0.00115	0.00024	0.00059	0.00265	-3.69820	-89.64000	0.07509	0.00422	0.08096	0.01563	-0.02611	0.00401
1.32400	0.00115	0.00024	0.00059	0.00265	-3.69820	-89.73000	0.07509	0.00422	0.08096	0.01563	-0.02611	0.00401
1.32600	0.00115	0.00024	0.00059	0.00265	0.00000	0.00000	0.07509	0.00422	0.08096	0.01563	-0.02611	0.00401
1.32800	0.00115	0.00024	0.00059	0.00265	-3.60800	-89.73000	0.07509	0.00422	0.08096	0.01563	-0.02611	0.00401
1.33000	0.00029	0.00057	0.00055	0.00232	-3.69820	-89.73000	0.10440	-0.03580	0.05490	0.01234	-0.02838	0.00216
1.33200	0.00029	0.00057	0.00055	0.00232	-3.69820	-89.64000	0.10440	-0.03580	0.05490	0.01234	-0.02838	0.00216
1.33400	0.00029	0.00057	0.00055	0.00232	-3.60800	-89.82000	0.10440	-0.03580	0.05490	0.01234	-0.02838	0.00216
1.33600	0.00029	0.00057	0.00055	0.00232	-3.60800	-89.73000	0.10440	-0.03580	0.05490	0.01234	-0.02838	0.00216
1.33800	-0.00043	0.00056	0.00028	0.00249	-3.69820	-89.82000	0.05359	-0.03385	0.07449	0.01296	-0.02025	0.00422
1.34000	-0.00043	0.00056	0.00028	0.00249	0.00000	0.00000	0.05359	-0.03385	0.07449	0.01296	-0.02025	0.00422
1.34200	-0.00043	0.00056	0.00028	0.00249	-3.78840	-89.82000	0.05359	-0.03385	0.07449	0.01296	-0.02025	0.00422
1.34400	-0.00043	0.00056	0.00028	0.00249	-3.78840	-89.82000	0.05359	-0.03385	0.07449	0.01296	-0.02025	0.00422
1.34600	-0.00015	0.00037	0.00062	0.00137	-3.69820	-89.82000	0.06099	-0.00062	0.09669	0.00823	-0.02457	0.00257
1.34800	-0.00015	0.00037	0.00062	0.00137	-3.78840	-89.73000	0.06099	-0.00062	0.09669	0.00823	-0.02457	0.00257
1.35000	-0.00015	0.00037	0.00062	0.00137	-3.69820	-89.73000	0.06099	-0.00062	0.09669	0.00823	-0.02457	0.00257
1.35200	-0.00015	0.00037	0.00062	0.00137	-3.60800	-89.64000	0.06099	-0.00062	0.09669	0.00823	-0.02457	0.00257
1.35400	0.00100	0.00084	0.00047	0.00162	0.00000	0.00000	0.07756	-0.06121	0.03146	0.01213	-0.02796	0.00617
1.35600	0.00100	0.00084	0.00047	0.00162	-3.60800	-89.73000	0.07756	-0.06121	0.03146	0.01213	-0.02796	0.00617
1.35800	0.00100	0.00084	0.00047	0.00162	-3.78840	-89.82000	0.07756	-0.06121	0.03146	0.01213	-0.02796	0.00617
1.36000	0.00100	0.00084	0.00047	0.00162	-3.69820	-89.73000	0.07756	-0.06121	0.03146	0.01213	-0.02796	0.00617
1.36200	-0.00040	0.00073	0.00021	0.00217	-3.78840	-89.64000	0.06686	-0.04393	0.07510	0.01337	-0.03053	0.00206
1.36400	-0.00040	0.00073	0.00021	0.00217	-3.69820	-89.64000	0.06686	-0.04393	0.07510	0.01337	-0.03053	0.00206
1.36600	-0.00040	0.00073	0.00021	0.00217	-3.60800	-89.73000	0.06686	-0.04393	0.07510	0.01337	-0.03053	0.00206
1.36800	-0.00040	0.00073	0.00021	0.00217	0.00000	0.00000	0.06686	-0.04393	0.07510	0.01337	-0.03053	0.00206
1.37000	-0.00063	0.00067	0.00022	0.00296	-3.69820	-89.73000	0.06624	-0.00463	0.07433	0.00977	-0.03259	0.00350
1.37200	-0.00063	0.00067	0.00022	0.00296	-3.60800	-89.82000	0.06624	-0.00463	0.07433	0.00977	-0.03259	0.00350
1.37400	-0.00063	0.00067	0.00022	0.00296	-3.78840	-89.73000	0.06624	-0.00463	0.07433	0.00977	-0.03259	0.00350
1.37600	-0.00063	0.00067	0.00022	0.00296	-3.69820	-89.64000	0.06624	-0.00463	0.07433	0.00977	-0.03259	0.00350
1.37800	-0.00061	0.00048	0.00047	0.00263	-3.69820	-89.64000	0.08640	-0.03663	0.04040	0.01316	-0.02611	-0.00154
1.38000	-0.00061	0.00048	0.00047	0.00263	-3.87860	-89.64000	0.08640	-0.03663	0.04040	0.01316	-0.02611	-0.00154
1.38200	-0.00061	0.00048	0.00047	0.00263	0.00000	0.00000	0.08640	-0.03663	0.04040	0.01316	-0.02611	-0.00154
1.38400	-0.00061	0.00048	0.00047	0.00263	-3.78840	-89.73000	0.08640	-0.03663	0.04040	0.01316	-0.02611	-0.00154
1.38600	0.00094	0.00076	0.00053	0.00130	-3.69820	-89.64000	0.08671	-0.03611	0.06523	0.01481	-0.02786	0.00401
1.38800	0.00094	0.00076	0.00053	0.00130	0.00000	0.00000	0.08671	-0.03611	0.06523	0.01481	-0.02786	0.00401
1.39000	0.00094	0.00076	0.00053	0.00130	-3.60800	-89.82000	0.08671	-0.03611	0.06523	0.01481	-0.02786	0.00401
1.39200	0.00094	0.00076	0.00053	0.00130	-3.51780	-89.82000	0.08671	-0.03611	0.06523	0.01481	-0.02786	0.00401
1.39400	0.00001	0.00040	0.00051	0.00105	-3.69820	-89.73000	0.05359	-0.01554	0.10656	0.00853	-0.02982	0.00360
1.39600	0.00001	0.00040	0.00051	0.00105	0.00000	0.00000	0.05359	-0.01554	0.10656	0.00853	-0.02982	0.00360
1.39800	0.00001	0.00040	0.00051	0.00105	-3.69820	-89.82000	0.05359	-0.01554	0.10656	0.00853	-0.02982	0.00360
1.40000	0.00001	0.00040	0.00051	0.00105	-3.60800	-89.64000	0.05359	-0.01554	0.10656	0.00853	-0.02982	0.00360
1.40200	-0.00038	0.00072	0.00044	0.00122	0.00000	0.00000	0.09093	-0.03086	0.04827	0.01172	-0.02581	0.00607
1.40400	-0.00038	0.00072	0.00044	0.00122	-3.60800	-89.64000	0.09093	-0.03086	0.04827	0.01172	-0.02581	0.00607
1.40600	-0.00038	0.00072	0.00044	0.00122	-3.60800	-89.73000	0.09093	-0.03086	0.04827	0.01172	-0.02581	0.00607
1.40800	-0.00038	0.00072	0.00044	0.00122	-3.78840	-89.73000	0.09093	-0.03086	0.04827	0.01172	-0.02581	0.00607
1.41000	-0.00068	0.00049	0.00036	0.00168	-3.69820	-89.73000	0.08116	-0.04928	0.07294	0.01573	-0.03167	0.00977
1.41200	-0.00068	0.00049	0.00036	0.00168	-3.78840	-89.73000	0.08116	-0.04928	0.07294	0.01573	-0.03167	0.00977
1.41400	-0.00068	0.00049	0.00036	0.00168	-3.87860	-89.73000	0.08116	-0.04928	0.07294	0.01573	-0.03167	0.00977
1.41600	-0.00068	0.00049	0.00036	0.00168	0.00000	0.00000	0.08116	-0.04928	0.07294	0.01573	-0.03167	0.00977
1.41800	0.00149	0.00062	0.00059	0.00160	-3.78840	-89.73000	0.04515	-0.02397	0.09793	0.01141	-0.03146	0.00627
1.42000	0.00149	0.00062	0.00059	0.00160	-3.69820	-89.82000	0.04515	-0.02397	0.09793	0.01141	-0.03146	0.00627
1.42200	0.00149	0.00062	0.00059	0.00160	-3.69820	-89.82000	0.04515	-0.02397	0.09793	0.01141	-0.03146	0.00627
1.42400	0.00149	0.00062	0.00059	0.00160	-3.69820	-89.73000	0.04515	-0.02397	0.09793	0.01141	-0.03146	0.00627
1.42600	-0.00033	0.00040	0.00045	0.00149	-3.60800	-89.73000	0.09998	-0.03796	0.05413	0.00761	-0.02848	0.00710
1.42800	-0.00033	0.00040	0.00045	0.00149	-3.51780	-89.73000	0.09998	-0.03796	0.05413	0.00761	-0.02848	0.00710
1.43000	-0.00033	0.00040	0.00045	0.00149	0.00000	0.00000	0.09998	-0.03796	0.05413	0.00761	-0.02848	0.00710
1.43200	-0.00033	0.00040	0.00045	0.00149	-3.60800	-89.73000	0.09998	-0.03796	0.05413	0.00761	-0.02848	0.00710
1.43400	-0.00057	0.00107	0.00060	0.00122	-3.69820	-89.82000	0.06747	-0.05741	0.07387	0.00771	-0.03033	0.00658
1.43600	-0.00057	0.00107	0.00060	0.00122	-3.60800	-89.82000	0.06747	-0.05741	0.07387	0.00771	-0.03033	0.00658
1.43800	-0.00057	0.00107	0.00060	0.00122	-3.78840	-89.82000	0.06747	-0.05741	0.07387	0.00771	-0.03033	0.00658
1.44000	-0.00057	0.00107	0.00060	0.00122	-3.78840	-89.82000	0.06747	-0.05741	0.07387	0.00771	-0.03033	0.00658
1.44200	-0.00073	0.00040	0.00048	0.00112	-3.69820	-89.91000	0.06346	0.00113	0.11165	0.01224	-0.02457	0.00381
1.44400	0.00263	0.00060	0.00028	0.00129	0.00000	0.00000	0.06346	0.00113	0.11165	0.01224	-0.02457	0.00381
1.44600	0.00263	0.00060	0.00028	0.00129	-3.69820	-90.00000	0.06346	0.00113	0.11165	0.01224	-0.02457	0.00381
1.44800	0.00263	0.00060	0.00028	0.00129	-3.60800	-89.82000	0.06346	0.00113	0.11165	0.01224	-0.02457	0.00381
1.45000	0.00263	0.00060	0.00028	0.00129	-3.69820	-89.82000	0.06346	0.00113	0.11165	0.01224	-0.02457	0.00381
1.45200	0.00029	0.00127	0.00040	0.00137	-3.69820	-89.73000	0.08342	-0.02613	0.05151	0.01131	-0.03228	-0.00113
1.45400	0.00029	0.00127	0.00040	0.00137	-3.60800	-89.73000	0.08342	-0.02613	0.05151	0.01131	-0.03228	-0.00113
1.45600	0.00029	0.00127	0.00040	0.00137	-3.69820	-89.73000	0.08342	-0.02613	0.05151	0.01131	-0.03228	-0.00113
1.45800	0.00029	0.00127	0.00040	0.00137	0.00000	0.00000	0.08342	-0.02613	0.05151	0.01131	-0.03228	-0.00113
1.46000	-0.00017	0.00013	0.00066	0.00263	-3.60800	-89.82000	0.06789	-0.02819	0.09083	0.01337	-0.03403	0.00648
1.46200	-0.00017	0.00013	0.00066	0.00263	-3.60800	-89.82000	0.06789	-0.02819	0.09083	0.01337	-0.03403	0.00648
1.46400	-0.00017	0.00013	0.00066	0.00263	-3.60800	-89.82000	0.06789	-0.02819	0.09083	0.01337	-0.03403	0.00648
1.46600	-0.00017	0.00013	0.00066	0.00263	-3.51780	-89.64000	0.06789	-0.02819	0.09083	0.01337	-0.03403	0.00648
1.46800	-0.00051	0.00165	0.00031	0.00169	-3.42760	-89.64000	0.07128	-0.00792	0.11366	0.00761	-0.02694	0.00144
1.47000	-0.00051	0.00165	0.00031	0.00169	-3.42760	-89.73000	0.07128	-0.00792	0.11366	0.00761	-0.02694	0.00144
1.47200	-0.00051	0.00165	0.00031	0.00169	0.00000	0.00000	0.07128	-0.00792	0.11366	0.00761	-0.02694	0.00144
1.47400	-0.00051	0.00165	0.00031	0.00169	-3.60800	-89.73000	0.07128	-0.00792	0.11366	0.00761	-0.02694	0.00144
1.47600	0.00057	0.00007	0.00055	0.00179	-3.60800	-89.82000	0.07951	-0.05617	0.05506	0.00987	-0.03064	0.00360
1.47800	0.00057	0.00007	0.00055	0.00179	-3.69820	-89.73000	0.07951	-0.05617	0.05506	0.00987	-0.03064	0.00360
1.48000	0.00057	0.00007	0.00055	0.00179	-3.69820	-89.73000	0.07951	-0.05617	0.05506	0.00987	-0.03064	0.00360
1.48200	0.00057	0.00007	0.00055	0.00179	-3.78840	-89.73000	0.07951	-0.05617	0.05506	0.00987	-0.03064	0.00360
1.48400	0.00001	0.00140	0.00061	0.00162	-3.78840	-89.64000	0.07951	-0.05617	0.05506	0.00987	-0.03064	0.00360
1.48600	0.00055	-0.00060	0.00049	0.00136	0.00000	0.00000	0.07673	-0.04239	0.08374	0.01553	-0.02509	0.00350
1.48800	0.00055	-0.00060	0.00049	0.00136	-3.69820	-89.55000	0.07673	-0.04239	0.08374	0.01553	-0.02509	0.00350
1.49000	0.00055	-0.00060	0.00049	0.00136	-3.69820	-89.73000	0.07673	-0.04239	0.08374	0.01553	-0.02509	0.00350
1.49200	0.00055	-0.00060	0.00049	0.00136	-3.60800	-89.73000	0.07673	-0.04239	0.08374	0.01553	-0.02509	0.00350
1.49400	-0.00034	0.00037	0.00085	0.00123	-3.60800	-89.82000	0.07673	-0.04239	0.08374	0.01553	-0.02509	0.00350
1.49600	-0.00107	0.00216	0.00000	0.00084	-3.69820	-89.91000	0.06089	-0.01091	0.11181	0.01213	-0.03321	0.00010
1.49800	-0.00107	0.00216	0.00000	0.00084	-3.69820	-89.91000	0.06089	-0.01091	0.11181	0.01213	-0.03321	0.00010
1.50000	-0.00107	0.00216	0.00000	0.00084	0.00000	0.00000	0.06089	-0.01091	0.11181	0.01213	-0.03321	0.00010
1.50200	-0.00107	0.00216	0.00000	0.00084	-3.60800	-89.82000	0.06089	-0.01091	0.11181	0.01213	-0.03321	0.00010
1.50400	-0.00012	0.00029	0.00068	0.00089	-3.60800	-89.73000	0.08198	-0.04012	0.05089	0.01501	-0.02097	-0.00051
1.50600	-0.00012	0.00029	0.00068	0.00089	-3.60800	-89.73000	0.08198	-0.04012	0.05089	0.01501	-0.02097	-0.00051
1.50800	-0.00012	0.00029	0.00068	0.00089	-3.60800	-89.73000	0.08198	-0.04012	0.05089	0.01501	-0.02097	-0.00051
1.51000	-0.00012	0.00029	0.00068	0.00089	-3.69820	-89.64000	0.08198	-0.04012	0.05089	0.01501	-0.02097	-0.00051
1.51200	0.00119	0.00079	0.00051	0.00106	-3.51780	-89.64000	0.04094	-0.01049	0.12013	0.00771	-0.02796	0.00401
1.51400	0.00119	0.00079	0.00051	0.00106	0.00000	0.00000	0.04094	-0.01049	0.12013	0.00771	-0.02796	0.00401
1.51600	0.00119	0.00079	0.00051	0.00106	-3.60800	-89.64000	0.04094	-0.01049	0.12013	0.00771	-0.02796	0.00401
1.51800	0.00119	0.00079	0.00051	0.00106	-3.60800	-89.73000	0.04094	-0.01049	0.12013	0.00771	-0.02796	0.00401
1.52000	-0.00011	0.00021	0.00062	0.00096	-3.60800	-89.82000	0.07550	-0.00432	0.09423	0.01398	-0.02498	0.00555
1.52200	-0.00011	0.00021	0.00062	0.00096	-3.60800	-89.73000	0.07550	-0.00432	0.09423	0.01398	-0.02498	0.00555
1.52400	-0.00011	0.00021	0.00062	0.00096	-3.51780	-89.64000	0.07550	-0.00432	0.09423	0.01398	-0.02498	0.00555
1.52600	-0.00011	0.00021	0.00062	0.00096	-3.69820	-89.55000	0.07550	-0.00432	0.09423	0.01398	-0.02498	0.00555
1.52800	-0.00057	0.00093	0.00048	0.00151	0.00000	0.00000	0.08949	-0.03066	0.05675	0.01738	-0.02817	-0.00206
1.53000	-0.00057	0.00093	0.00048	0.00151	-3.69820	-89.55000	0.08949	-0.03066	0.05675	0.01738	-0.02817	-0.00206
1.53200	-0.00057	0.00093	0.00048	0.00151	-3.69820	-89.55000	0.08949	-0.03066	0.05675	0.01738	-0.02817	-0.00206
1.53400	-0.00057	0.00093	0.00048	0.00151	-3.78840	-89.64000	0.08949	-0.03066	0.05675	0.01738	-0.02817	-0.00206
1.53600	-0.00099	-0.00004	0.00066	0.00150	-3.78840	-89.73000	0.05554	-0.01173	0.10178	0.01584	-0.02581	0.00093
1.53800	-0.00099	-0.00004	0.00066	0.00150	-3.78840	-89.82000	0.05554	-0.01173	0.10178	0.01584	-0.02581	0.00093
1.54000	-0.00099	-0.00004	0.00066	0.00150	-3.69820	-89.82000	0.05554	-0.01173	0.10178	0.01584	-0.02581	0.00093
1.54200	-0.00099	-0.00004	0.00066	0.00150	0.00000	0.00000	0.05554	-0.01173	0.10178	0.01584	-0.02581	0.00093
1.54400	0.00076	0.00127	0.00040	0.00108	-3.69820	-89.82000	0.09381	0.01533	0.08929	0.02046	-0.02663	0.00267
1.54600	0.00076	0.00127	0.00040	0.00108	-3.78840	-89.73000	0.09381	0.01533	0.08929	0.02046	-0.02663	0.00267
1.54800	0.00076	0.00127	0.00040	0.00108	-3.60800	-89.73000	0.09381	0.01533	0.08929	0.02046	-0.02663	0.00267
1.55000	0.00076	0.00127	0.00040	0.00108	-3.60800	-89.82000	0.09381	0.01533	0.08929	0.02046	-0.02663	0.00267
1.55200	-0.00057	0.00026	0.00029	0.00102	-3.69820	-89.82000	0.08599	-0.04331	0.06076	0.01614	-0.02868	0.00206
1.55400	-0.00057	0.00026	0.00029	0.00102	-3.69820	-89.64000	0.08599	-0.04331	0.06076	0.01614	-0.02868	0.00206
1.55600	-0.00057	0.00026	0.00029	0.00102	0.00000	0.00000	0.08599	-0.04331	0.06076	0.01614	-0.02868	0.00206
1.55800	-0.00057	0.00026	0.00029	0.00102	-3.69820	-89.73000	0.08599	-0.04331	0.06076	0.01614	-0.02868	0.00206
1.56000	-0.00056	0.00089	0.00044	0.00142	-3.69820	-89.64000	0.06521	-0.00206	0.09577	0.01491	-0.02560	0.00237
1.56200	-0.00056	0.00089	0.00044	0.00142	-3.60800	-89.73000	0.06521	-0.00206	0.09577	0.01491	-0.02560	0.00237
1.56400	-0.00056	0.00089	0.00044	0.00142	-3.60800	-89.73000	0.06521	-0.00206	0.09577	0.01491	-0.02560	0.00237
1.56600	-0.00056	0.00089	0.00044	0.00142	-3.51780	-89.82000	0.06521	-0.00206	0.09577	0.01491	-0.02560	0.00237
1.56800	-0.00040	-0.00004	0.00043	0.00029	-3.51780	-89.73000	0.09782	0.00370	0.08667	0.01553	-0.02992	0.00206
1.57000	-0.00040	-0.00004	0.00043	0.00029	0.00000	0.00000	0.09782	0.00370	0.08667	0.01553	-0.02992	0.00206
1.57200	-0.00040	-0.00004	0.00043	0.00029	-3.51780	-89.82000	0.09782	0.00370	0.08667	0.01553	-0.02992	0.00206
1.57400	-0.00040	-0.00004	0.00043	0.00029	-3.42760	-89.82000	0.09782	0.00370	0.08667	0.01553	-0.02992	0.00206
1.57600	0.00061	0.00110	0.00061	0.00108	-3.51780	-89.55000	0.08815	-0.04249	0.06385	0.01656	-0.02868	0.00442
1.57800	0.00061	0.00110	0.00061	0.00108	-3.60800	-89.55000	0.08815	-0.04249	0.06385	0.01656	-0.02868	0.00442
1.58000	0.00061	0.00110	0.00061	0.00108	-3.69820	-89.64000	0.08815	-0.04249	0.06385	0.01656	-0.02868	0.00442
1.58200	0.00061	0.00110	0.00061	0.00108	-3.69820	-89.64000	0.08815	-0.04249	0.06385	0.01656	-0.02868	0.00442
1.58400	-0.00029	0.00005	0.00059	0.00149	0.00000	0.00000	0.08239	0.00710	0.09238	0.02252	-0.02838	0.00226
1.58600	-0.00029	0.00005	0.00059	0.00149	-3.78840	-89.73000	0.08239	0.00710	0.09238	0.02252	-0.02838	0.00226
1.58800	-0.00029	0.00005	0.00059	0.00149	-3.78840	-89.73000	0.08239	0.00710	0.09238	0.02252	-0.02838	0.00226
1.59000	-0.00029	0.00005	0.00059	0.00149	-3.69820	-89.64000	0.08239	0.00710	0.09238	0.02252	-0.02838	0.00226
1.59200	-0.00056	0.00116	0.00049	0.00032	-3.60800	-89.64000	0.08887	0.01317	0.08667	0.01789	-0.03403	-0.00093
1.59400	-0.00056	0.00116	0.00049	0.00032	-3.69820	-89.73000	0.08887	0.01317	0.08667	0.01789	-0.03403	-0.00093
1.59600	-0.00056	0.00116	0.00049	0.00032	-3.69820	-89.73000	0.08887	0.01317	0.08667	0.01789	-0.03403	-0.00093
1.59800	-0.00056	0.00116	0.00049	0.00032	-3.69820	-89.73000	0.08887	0.01317	0.08667	0.01789	-0.03403	-0.00093
1.60000	0.00007	0.00013	0.00062	0.00137	-3.69820	-89.73000	0.11335	-0.02973	0.05490	0.01758	-0.03064	0.00082
1.60200	0.00007	0.00013	0.00062	0.00137	-3.60800	-89.73000	0.11335	-0.02973	0.05490	0.01758	-0.03064	0.00082
1.60400	0.00007	0.00013	0.00062	0.00137	-3.60800	-89.64000	0.11335	-0.02973	0.05490	0.01758	-0.03064	0.00082
1.60600	0.00007	0.00013	0.00062	0.00137	-3.60800	-89.64000	0.11335	-0.02973	0.05490	0.01758	-0.03064	0.00082
1.60800	0.00068	0.00115	0.00057	0.00095	-3.51780	-89.64000	0.08568	-0.00216	0.10070	0.01800	-0.03290	-0.00360
1.61000	0.00068	0.00115	0.00057	0.00095	-3.51780	-89.64000	0.08568	-0.00216	0.10070	0.01800	-0.03290	-0.00360
1.61200	0.00068	0.00115	0.00057	0.00095	-3.51780	-89.64000	0.08568	-0.00216	0.10070	0.01800	-0.03290	-0.00360
1.61400	0.00068	0.00115	0.00057	0.00095	-3.42760	-89.64000	0.08568	-0.00216	0.10070	0.01800	-0.03290	-0.00360
1.61600	-0.00020	0.00034	0.00070	0.00121	0.00000	0.00000	0.07385	0.00710	0.07541	0.01882	-0.03136	-0.00185
1.61800	-0.00020	0.00034	0.00070	0.00121	-3.60800	-89.73000	0.07385	0.00710	0.07541	0.01882	-0.03136	-0.00185
1.62000	-0.00020	0.00034	0.00070	0.00121	-3.69820	-89.73000	0.07385	0.00710	0.07541	0.01882	-0.03136	-0.00185
1.62200	-0.00020	0.00034	0.00070	0.00121	-3.69820	-89.73000	0.07385	0.00710	0.07541	0.01882	-0.03136	-0.00185
1.62400	-0.00038	0.00115	0.00049	0.00158	-3.69820	-89.73000	0.10183	-0.02243	0.04241	0.01974	-0.02519	0.00041
1.62600	-0.00038	0.00115	0.00049	0.00158	-3.60800	-89.73000	0.10183	-0.02243	0.04241	0.01974	-0.02519	0.00041
1.62800	-0.00038	0.00115	0.00049	0.00158	-3.60800	-89.73000	0.10183	-0.02243	0.04241	0.01974	-0.02519	0.00041
1.63000	-0.00038	0.00115	0.00049	0.00158	-3.60800	-89.82000	0.10183	-0.02243	0.04241	0.01974	-0.02519	0.00041
1.63200	-0.00012	0.00004	0.00050	0.00125	0.00000	0.00000	0.05143	0.00484	0.09268	0.01728	-0.02416	-0.00103
1.63400	-0.00012	0.00004	0.00050	0.00125	-3.60800	-89.82000	0.05143	0.00484	0.09268	0.01728	-0.02416	-0.00103
1.63600	-0.00012	0.00004	0.00050	0.00125	-3.69820	-89.82000	0.05143	0.00484	0.09268	0.01728	-0.02416	-0.00103
1.63800	-0.00012	0.00004	0.00050	0.00125	-3.69820	-89.82000	0.05143	0.00484	0.09268	0.01728	-0.02416	-0.00103
1.64000	0.00009	0.00141	0.00049	0.00070	-3.78840	-89.82000	0.06264	0.03920	0.07649	0.02334	-0.01655	0.00093
1.64200	0.00009	0.00141	0.00049	0.00070	-3.78840	-89.73000	0.06264	0.03920	0.07649	0.02334	-0.01655	0.00093
1.64400	0.00009	0.00141	0.00049	0.00070	-3.60800	-89.73000	0.06264	0.03920	0.07649	0.02334	-0.01655	0.00093
1.64600	0.00009	0.00141	0.00049	0.00070	0.00000	0.00000	0.06264	0.03920	0.07649	0.02334	-0.01655	0.00093
1.64800	-0.00041	-0.00006	0.00075	0.00078	-3.78840	-89.73000	0.08640	-0.00329	0.02113	0.02355	-0.01902	-0.00422
1.65000	-0.00041	-0.00006	0.00075	0.00078	-3.78840	-89.64000	0.08640	-0.00329	0.02113	0.02355	-0.01902	-0.00422
1.65200	-0.00041	-0.00006	0.00075	0.00078	-3.87860	-89.64000	0.08640	-0.00329	0.02113	0.02355	-0.01902	-0.00422
1.65400	-0.00041	-0.00006	0.00075	0.00078	-3.87860	-89.64000	0.08640	-0.00329	0.02113	0.02355	-0.01902	-0.00422
1.65600	-0.00116	0.00121	0.00055	0.00100	-3.87860	-89.64000	0.05246	-0.00350	0.10086	0.01902	-0.01737	-0.00144
1.65800	-0.00116	0.00121	0.00055	0.00100	-3.78840	-89.82000	0.05246	-0.00350	0.10086	0.01902	-0.01737	-0.00144
1.66000	-0.00116	0.00121	0.00055	0.00100	0.00000	0.00000	0.05246	-0.00350	0.10086	0.01902	-0.01737	-0.00144
1.66200	-0.00116	0.00121	0.00055	0.00100	-3.60800	-89.82000	0.05246	-0.00350	0.10086	0.01902	-0.01737	-0.00144
1.66400	0.00015	-0.00022	0.00071	0.00138	-3.60800	-89.64000	0.07509	0.01852	0.08775	0.01913	-0.02395	0.00185
1.66600	0.00015	-0.00022	0.00071	0.00138	-3.60800	-89.73000	0.07509	0.01852	0.08775	0.01913	-0.02395	0.00185
1.66800	0.00015	-0.00022	0.00071	0.00138	-3.51780	-89.82000	0.07509	0.01852	0.08775	0.01913	-0.02395	0.00185
1.67000	0.00015	-0.00022	0.00071	0.00138	-3.51780	-89.73000	0.07509	0.01852	0.08775	0.01913	-0.02395	0.00185
1.67200	-0.00029	0.00071	0.00044	0.00177	-3.51780	-89.91000	0.08990	-0.01965	0.04241	0.02694	-0.02241	0.00257
1.67400	-0.00029	0.00071	0.00044	0.00177	0.00000	0.00000	0.08990	-0.01965	0.04241	0.02694	-0.02241	0.00257
1.67600	-0.00029	0.00071	0.00044	0.00177	-3.60800	-89.82000	0.08990	-0.01965	0.04241	0.02694	-0.02241	0.00257
1.67800	-0.00029	0.00071	0.00044	0.00177	-3.60800	-89.91000	0.08990	-0.01965	0.04241	0.02694	-0.02241	0.00257
1.68000	-0.00066	-0.00045	0.00061	0.00068	-3.60800	-90.00000	0.06830	-0.00504	0.10656	0.02725	-0.02293	-0.00257
1.68200	-0.00066	-0.00045	0.00061	0.00068	-3.60800	-89.82000	0.06830	-0.00504	0.10656	0.02725	-0.02293	-0.00257
1.68400	-0.00066	-0.00045	0.00061	0.00068	-3.60800	-89.82000	0.06830	-0.00504	0.10656	0.02725	-0.02293	-0.00257
1.68600	-0.00066	-0.00045	0.00061	0.00068	-3.60800	-89.82000	0.06830	-0.00504	0.10656	0.02725	-0.02293	-0.00257
1.68800	-0.00117	0.00156	0.00053	0.00099	0.00000	0.00000	0.08753	0.03076	0.10780	0.02519	-0.02694	0.00453
1.69000	-0.00117	0.00156	0.00053	0.00099	-3.60800	-89.73000	0.08753	0.03076	0.10780	0.02519	-0.02694	0.00453
1.69200	-0.00117	0.00156	0.00053	0.00099	-3.60800	-89.73000	0.08753	0.03076	0.10780	0.02519	-0.02694	0.00453
1.69400	-0.00117	0.00156	0.00053	0.00099	-3.60800	-89.73000	0.08753	0.03076	0.10780	0.02519	-0.02694	0.00453
1.69600	0.00099	0.00016	0.00066	0.00181	-3.60800	-89.73000	0.09730	-0.00802	0.04549	0.02252	-0.02354	-0.00319
1.69800	0.00099	0.00016	0.00066	0.00181	-3.69820	-89.73000	0.09730	-0.00802	0.04549	0.02252	-0.02354	-0.00319
1.70000	0.00099	0.00016	0.00066	0.00181	0.00000	0.00000	0.09730	-0.00802	0.04549	0.02252	-0.02354	-0.00319
1.70200	0.00099	0.00016	0.00066	0.00181	-3.42760	-89.73000	0.09730	-0.00802	0.04549	0.02252	-0.02354	-0.00319
1.70400	-0.00018	0.00119	0.00046	0.00225	-3.42760	-89.73000	0.08270	0.01461	0.08389	0.02694	-0.02879	0.00041
1.70600	-0.00018	0.00119	0.00046	0.00225	-3.42760	-89.82000	0.08270	0.01461	0.08389	0.02694	-0.02879	0.00041
1.70800	-0.00018	0.00119	0.00046	0.00225	-3.42760	-89.82000	0.08270	0.01461	0.08389	0.02694	-0.02879	0.00041
1.71000	-0.00018	0.00119	0.00046	0.00225	-3.42760	-89.91000	0.08270	0.01461	0.08389	0.02694	-0.02879	0.00041
1.71200	-0.00012	0.00018	0.00054	0.00186	-3.51780	-89.91000	0.09926	0.02510	0.09901	0.02273	-0.03269	0.00010
1.71400	-0.00012	0.00018	0.00054	0.00186	-3.69820	-89.82000	0.09926	0.02510	0.09901	0.02273	-0.03269	0.00010
1.71600	-0.00012	0.00018	0.00054	0.00186	0.00000	0.00000	0.09926	0.02510	0.09901	0.02273	-0.03269	0.00010
1.71800	-0.00012	0.00018	0.00054	0.00186	-3.60800	-89.73000	0.09926	0.02510	0.09901	0.02273	-0.03269	0.00010
1.72000	-0.00080	0.00091	0.00070	0.00141	-3.69820	-89.64000	0.10132	-0.01636	0.04303	0.02797	-0.02766	0.00175
1.72200	-0.00080	0.00091	0.00070	0.00141	-3.78840	-89.46000	0.10132	-0.01636	0.04303	0.02797	-0.02766	0.00175
1.72400	-0.00080	0.00091	0.00070	0.00141	-3.78840	-89.46000	0.10132	-0.01636	0.04303	0.02797	-0.02766	0.00175
1.72600	-0.00080	0.00091	0.00070	0.00141	-3.78840	-89.55000	0.10132	-0.01636	0.04303	0.02797	-0.02766	0.00175
1.72800	0.00091	-0.00026	0.00067	0.00117	-3.60800	-89.64000	0.07457	0.00730	0.08914	0.02077	-0.02334	-0.00093
1.73000	0.00091	-0.00026	0.00067	0.00117	0.00000	0.00000	0.07457	0.00730	0.08914	0.02077	-0.02334	-0.00093
1.73200	0.00091	-0.00026	0.00067	0.00117	-3.69820	-89.55000	0.07457	0.00730	0.08914	0.02077	-0.02334	-0.00093
1.73400	0.00091	-0.00026	0.00067	0.00117	-3.69820	-89.64000	0.07457	0.00730	0.08914	0.02077	-0.02334	-0.00093
1.73600	-0.00061	0.00074	0.00050	0.00070	-3.60800	-89.73000	0.07540	0.02006	0.09993	0.02684	-0.01933	0.00010
1.73800	-0.00061	0.00074	0.00050	0.00070	-3.60800	-89.73000	0.07540	0.02006	0.09993	0.02684	-0.01933	0.00010
1.74000	-0.00061	0.00074	0.00050	0.00070	-3.69820	-89.64000	0.07540	0.02006	0.09993	0.02684	-0.01933	0.00010
1.74200	-0.00061	0.00074	0.00050	0.00070	-3.60800	-89.55000	0.07540	0.02006	0.09993	0.02684	-0.01933	0.00010
1.74400	-0.00061	0.00032	0.00062	0.00130	0.00000	0.00000	0.10409	-0.01235	0.05598	0.02077	-0.01995	0.00021
1.74600	-0.00061	0.00032	0.00062	0.00130	-3.69820	-89.64000	0.10409	-0.01235	0.05598	0.02077	-0.01995	0.00021
1.74800	-0.00061	0.00032	0.00062	0.00130	-3.69820	-89.64000	0.10409	-0.01235	0.05598	0.02077	-0.01995	0.00021
1.75000	-0.00061	0.00032	0.00062	0.00130	-3.60800	-89.73000	0.10409	-0.01235	0.05598	0.02077	-0.01995	0.00021
1.75200	-0.00079	0.00102	0.00044	0.00292	-3.60800	-89.73000	0.07509	-0.00165	0.09808	0.02221	-0.02694	0.00144
1.75400	-0.00079	0.00102	0.00044	0.00292	-3.51780	-89.64000	0.07509	-0.00165	0.09808	0.02221	-0.02694	0.00144
1.75600	-0.00079	0.00102	0.00044	0.00292	-3.60800	-89.73000	0.07509	-0.00165	0.09808	0.02221	-0.02694	0.00144
1.75800	-0.00079	0.00102	0.00044	0.00292	0.00000	0.00000	0.07509	-0.00165	0.09808	0.02221	-0.02694	0.00144
1.76000	0.00062	0.00040	0.00059	0.00150	-3.60800	-89.73000	0.08578	0.02469	0.10240	0.02386	-0.02879	0.00411
1.76200	-0.00021	0.00167	0.00033	0.00123	-3.60800	-89.73000	0.08578	0.02469	0.10240	0.02386	-0.02879	0.00411
1.76400	-0.00021	0.00167	0.00033	0.00123	-3.60800	-89.73000	0.08578	0.02469	0.10240	0.02386	-0.02879	0.00411
1.76600	-0.00021	0.00167	0.00033	0.00123	-3.60800	-89.82000	0.08578	0.02469	0.10240	0.02386	-0.02879	0.00411
1.76800	-0.00021	0.00167	0.00033	0.00123	-3.51780	-89.82000	0.08578	0.02469	0.10240	0.02386	-0.02879	0.00411
1.77000	-0.00068	0.00043	0.00040	0.00123	-3.51780	-89.73000	0.12929	-0.00833	0.05937	0.02746	-0.02992	0.00350
1.77200	-0.00068	0.00043	0.00040	0.00123	0.00000	-89.73000	0.12929	-0.00833	0.05937	0.02746	-0.02992	0.00350
1.77400	-0.00068	0.00043	0.00040	0.00123	-3.51780	-89.73000	0.12929	-0.00833	0.05937	0.02746	-0.02992	0.00350
1.77600	-0.00068	0.00043	0.00040	0.00123	-3.60800	-89.82000	0.12929	-0.00833	0.05937	0.02746	-0.02992	0.00350
1.77800	-0.00049	0.00080	0.00040	0.00100	-3.60800	-89.91000	0.06768	0.01235	0.10178	0.02262	-0.02848	0.00329
1.78000	-0.00043	0.00046	0.00039	0.00066	-3.60800	-89.91000	0.06768	0.01235	0.10178	0.02262	-0.02848	0.00329
1.78200	-0.00043	0.00046	0.00039	0.00066	-3.78840	-89.73000	0.06768	0.01235	0.10178	0.02262	-0.02848	0.00329
1.78400	-0.00043	0.00046	0.00039	0.00066	-3.69820	0.00000	0.06768	0.01235	0.10178	0.02262	-0.02848	0.00329
1.78600	-0.00043	0.00046	0.00039	0.00066	0.00000	0.00000	0.06768	0.01235	0.10178	0.02262	-0.02848	0.00329
1.78800	-0.00015	0.00004	0.00078	0.00114	-3.69820	-89.73000	0.08866	0.00833	0.07402	0.02571	-0.02087	0.00298
1.79000	-0.00015	0.00004	0.00078	0.00114	-3.60800	-89.82000	0.08866	0.00833	0.07402	0.02571	-0.02087	0.00298
1.79200	-0.00015	0.00004	0.00078	0.00114	-3.51780	-89.82000	0.08866	0.00833	0.07402	0.02571	-0.02087	0.00298
1.79400	-0.00015	0.00004	0.00078	0.00114	-3.51780	-89.73000	0.08866	0.00833	0.07402	0.02571	-0.02087	0.00298
1.79600	-0.00004	0.00163	0.00054	0.00170	-3.60800	-89.73000	0.06624	-0.03580	0.06261	0.02231	-0.01594	0.00442
1.79800	-0.00004	0.00163	0.00054	0.00170	-3.60800	-89.73000	0.06624	-0.03580	0.06261	0.02231	-0.01594	0.00442
1.80000	-0.00004	0.00163	0.00054	0.00170	0.00000	0.00000	0.06624	-0.03580	0.06261	0.02231	-0.01594	0.00442
1.80200	-0.00004	0.00163	0.00054	0.00170	-3.78840	-89.73000	0.06624	-0.03580	0.06261	0.02231	-0.01594	0.00442
1.80400	-0.00079	0.00002	0.00058	0.00120	-3.69820	-89.73000	0.04443	0.01523	0.10780	0.01985	-0.01923	0.00339
1.80600	-0.00079	0.00002	0.00058	0.00120	-3.60800	-89.82000	0.04443	0.01523	0.10780	0.01985	-0.01923	0.00339
1.80800	-0.00079	0.00002	0.00058	0.00120	-3.51780	-89.91000	0.04443	0.01523	0.10780	0.01985	-0.01923	0.00339
1.81000	-0.00079	0.00002	0.00058	0.00120	-3.51780	-89.91000	0.04443	0.01523	0.10780	0.01985	-0.01923	0.00339
1.81200	-0.00067	0.00104	0.00048	0.00070	-3.60800	-89.73000	0.07138	0.00669	0.08081	0.02108	-0.01820	0.00473
1.81400	-0.00067	0.00104	0.00048	0.00070	0.00000	0.00000	0.07138	0.00669	0.08081	0.02108	-0.01820	0.00473
1.81600	-0.00067	0.00104	0.00048	0.00070	-3.51780	-89.73000	0.07138	0.00669	0.08081	0.02108	-0.01820	0.00473
1.81800	-0.00067	0.00104	0.00048	0.00070	-3.51780	-89.73000	0.07138	0.00669	0.08081	0.02108	-0.01820	0.00473
1.82000	0.00040	-0.00002	0.00061	0.00062	-3.60800	-89.64000	0.07581	-0.02984	0.05567	0.02252	-0.02221	0.00103
1.82200	0.00040	-0.00002	0.00061	0.00062	-3.69820	-89.64000	0.07581	-0.02984	0.05567	0.02252	-0.02221	0.00103
1.82400	0.00040	-0.00002	0.00061	0.00062	-3.78840	-89.64000	0.07581	-0.02984	0.05567	0.02252	-0.02221	0.00103
1.82600	0.00040	-0.00002	0.00061	0.00062	-3.60800	-89.64000	0.07581	-0.02984	0.05567	0.02252	-0.02221	0.00103
1.82800	-0.00046	0.00143	0.00047	0.00087	0.00000	0.00000	0.08146	0.02274	0.09561	0.02293	-0.02519	0.00216
1.83000	-0.00046	0.00143	0.00047	0.00087	-3.51780	-89.64000	0.08146	0.02274	0.09561	0.02293	-0.02519	0.00216
1.83200	-0.00046	0.00143	0.00047	0.00087	-3.60800	-89.64000	0.08146	0.02274	0.09561	0.02293	-0.02519	0.00216
1.83400	-0.00046	0.00143	0.00047	0.00087	-3.51780	-89.73000	0.08146	0.02274	0.09561	0.02293	-0.02519	0.00216
1.83600	-0.00046	0.00007	0.00059	0.00127	-3.51780	-89.64000	0.08105	0.00648	0.06708	0.01111	-0.02704	-0.00319
1.83800	-0.00046	0.00007	0.00059	0.00127	-3.60800	-89.55000	0.08105	0.00648	0.06708	0.01111	-0.02704	-0.00319
1.84000	-0.00046	0.00007	0.00059	0.00127	-3.60800	-89.82000	0.08105	0.00648	0.06708	0.01111	-0.02704	-0.00319
1.84200	-0.00046	0.00007	0.00059	0.00127	0.00000	0.00000	0.08105	0.00648	0.06708	0.01111	-0.02704	-0.00319
1.84400	-0.00077	0.00127	0.00049	0.00137	-3.69820	-89.82000	0.08784	-0.02870	0.05721	0.01830	-0.02169	-0.00031
1.84600	-0.00077	0.00127	0.00049	0.00137	-3.69820	-89.82000	0.08784	-0.02870	0.05721	0.01830	-0.02169	-0.00031
1.84800	-0.00077	0.00127	0.00049	0.00137	-3.60800	-89.82000	0.08784	-0.02870	0.05721	0.01830	-0.02169	-0.00031
1.85000	-0.00077	0.00127	0.00049	0.00137	-3.60800	-89.82000	0.08784	-0.02870	0.05721	0.01830	-0.02169	-0.00031
1.85200	0.00041	-0.00040	0.00064	0.00104	-3.60800	-89.82000	0.06665	-0.00247	0.10564	0.01686	-0.02241	0.00195
1.85400	0.00041	-0.00040	0.00064	0.00104	-3.60800	-89.82000	0.06665	-0.00247	0.10564	0.01686	-0.02241	0.00195
1.85600	0.00041	-0.00040	0.00064	0.00104	0.00000	0.00000	0.06665	-0.00247	0.10564	0.01686	-0.02241	0.00195
1.85800	0.00041	-0.00040	0.00064	0.00104	-3.60800	-89.91000	0.06665	-0.00247	0.10564	0.01686	-0.02241	0.00195
1.86000	0.00001	0.00118	0.00047	0.00073	-3.60800	-89.82000	0.05349	-0.00226	0.08004	0.01275	-0.01491	0.00010
1.86200	0.00001	0.00118	0.00047	0.00073	-3.51780	-89.73000	0.05349	-0.00226	0.08004	0.01275	-0.01491	0.00010
1.86400	0.00001	0.00118	0.00047	0.00073	-3.51780	-89.73000	0.05349	-0.00226	0.08004	0.01275	-0.01491	0.00010
1.86600	0.00001	0.00118	0.00047	0.00073	-3.60800	-89.73000	0.05349	-0.00226	0.08004	0.01275	-0.01491	0.00010
1.86800	-0.00084	0.00006	0.00060	0.00039	-3.60800	-89.73000	0.07632	-0.03621	0.05351	0.01810	-0.01367	-0.00144
1.87000	-0.00084	0.00006	0.00060	0.00039	0.00000	0.00000	0.07632	-0.03621	0.05351	0.01810	-0.01367	-0.00144
1.87200	-0.00084	0.00006	0.00060	0.00039	-3.69820	-89.73000	0.07632	-0.03621	0.05351	0.01810	-0.01367	-0.00144
1.87400	-0.00084	0.00006	0.00060	0.00039	-3.87860	-89.82000	0.07632	-0.03621	0.05351	0.01810	-0.01367	-0.00144
1.87600	-0.00051	0.00124	0.00047	0.00142	-3.78840	-89.73000	0.03538	-0.00051	0.11690	0.01512	-0.01666	0.00041
1.87800	-0.00051	0.00124	0.00047	0.00142	-3.78840	-89.73000	0.03538	-0.00051	0.11690	0.01512	-0.01666	0.00041
1.88000	-0.00051	0.00124	0.00047	0.00142	-3.69820	-89.73000	0.03538	-0.00051	0.11690	0.01512	-0.01666	0.00041
1.88200	-0.00051	0.00124	0.00047	0.00142	-3.60800	-89.82000	0.03538	-0.00051	0.11690	0.01512	-0.01666	0.00041
1.88400	0.00059	-0.00026	0.00052	0.00167	0.00000	0.00000	0.06038	0.01451	0.06215	0.01656	-0.01696	-0.00113
1.88600	0.00059	-0.00026	0.00052	0.00167	-3.60800	-89.82000	0.06038	0.01451	0.06215	0.01656	-0.01696	-0.00113
1.88800	0.00059	-0.00026	0.00052	0.00167	-3.60800	-89.73000	0.06038	0.01451	0.06215	0.01656	-0.01696	-0.00113
1.89000	0.00059	-0.00026	0.00052	0.00167	-3.69820	-89.73000	0.06038	0.01451	0.06215	0.01656	-0.01696	-0.00113
1.89200	-0.00033	0.00077	0.00082	0.00162	-3.69820	-89.64000	0.08239	-0.03848	0.04704	0.01440	-0.02149	0.00216
1.89400	-0.00033	0.00077	0.00082	0.00162	-3.60800	-89.73000	0.08239	-0.03848	0.04704	0.01440	-0.02149	0.00216
1.89600	-0.00033	0.00077	0.00082	0.00162	-3.69820	-89.73000	0.08239	-0.03848	0.04704	0.01440	-0.02149	0.00216
1.89800	-0.00033	0.00077	0.00082	0.00162	0.00000	0.00000	0.08239	-0.03848	0.04704	0.01440	-0.02149	0.00216
1.90000	-0.00080	0.00010	0.00048	0.00137	-3.60800	-89.82000	0.04937	-0.01996	0.09561	0.01830	-0.02457	-0.00031
1.90200	-0.00080	0.00010	0.00048	0.00137	-3.60800	-89.82000	0.04937	-0.01996	0.09561	0.01830	-0.02457	-0.00031
1.90400	-0.00080	0.00010	0.00048	0.00137	-3.60800	-89.73000	0.04937	-0.01996	0.09561	0.01830	-0.02457	-0.00031
1.90600	-0.00080	0.00010	0.00048	0.00137	-3.42760	-89.64000	0.04937	-0.01996	0.09561	0.01830	-0.02457	-0.00031
1.90800	-0.00041	0.00068	0.00060	0.00110	-3.51780	-89.64000	0.09134	0.01080	0.07264	0.01152	-0.01820	-0.00185
1.91000	-0.00041	0.00068	0.00060	0.00110	-3.42760	-89.64000	0.09134	0.01080	0.07264	0.01152	-0.01820	-0.00185
1.91200	-0.00041	0.00068	0.00060	0.00110	0.00000	0.00000	0.09134	0.01080	0.07264	0.01152	-0.01820	-0.00185
1.91400	-0.00041	0.00068	0.00060	0.00110	-3.42760	-89.64000	0.09134	0.01080	0.07264	0.01152	-0.01820	-0.00185
1.91600	0.00110	-0.00001	0.00054	0.00137	-3.51780	-89.64000	0.07570	-0.04774	0.04333	0.01656	-0.02478	0.00607
1.91800	0.00110	-0.00001	0.00054	0.00137	-3.60800	-89.55000	0.07570	-0.04774	0.04333	0.01656	-0.02478	0.00607
1.92000	0.00110	-0.00001	0.00054	0.00137	-3.60800	-89.64000	0.07570	-0.04774	0.04333	0.01656	-0.02478	0.00607
1.92200	0.00110	-0.00001	0.00054	0.00137	-3.60800	-89.73000	0.07570	-0.04774	0.04333	0.01656	-0.02478	0.00607
1.92400	-0.00021	0.00068	0.00051	0.00114	-3.60800	-89.91000	0.06778	-0.01132	0.10903	0.01141	-0.02395	0.00463
1.92600	-0.00021	0.00068	0.00051	0.00114	0.00000	0.00000	0.06778	-0.01132	0.10903	0.01141	-0.02395	0.00463
1.92800	-0.00021	0.00068	0.00051	0.00114	-3.51780	-89.82000	0.06778	-0.01132	0.10903	0.01141	-0.02395	0.00463
1.93000	-0.00021	0.00068	0.00051	0.00114	-3.51780	-89.91000	0.06778	-0.01132	0.10903	0.01141	-0.02395	0.00463
1.93200	-0.00073	0.00017	0.00044	0.00151	-3.51780	-89.91000	0.08949	-0.00823	0.08775	0.01018	-0.02313	0.00041
1.93400	-0.00073	0.00017	0.00044	0.00151	-3.60800	-89.91000	0.08949	-0.00823	0.08775	0.01018	-0.02313	0.00041
1.93600	-0.00073	0.00017	0.00044	0.00151	-3.69820	-89.91000	0.08949	-0.00823	0.08775	0.01018	-0.02313	0.00041
1.93800	-0.00073	0.00017	0.00044	0.00151	-3.60800	-89.91000	0.08949	-0.00823	0.08775	0.01018	-0.02313	0.00041
1.94000	-0.00054	0.00071	0.00050	0.00149	0.00000	0.00000	0.08188	-0.05309	0.04842	0.01018	-0.02426	0.00175
1.94200	-0.00054	0.00071	0.00050	0.00149	-3.60800	-89.91000	0.08188	-0.05309	0.04842	0.01018	-0.02426	0.00175
1.94400	-0.00054	0.00071	0.00050	0.00149	-3.69820	-89.82000	0.08188	-0.05309	0.04842	0.01018	-0.02426	0.00175
1.94600	-0.00054	0.00071	0.00050	0.00149	-3.78840	-89.82000	0.08188	-0.05309	0.04842	0.01018	-0.02426	0.00175
1.94800	0.00088	0.00032	0.00057	0.00200	-3.69820	-89.73000	0.08362	-0.01739	0.10332	0.01285	-0.02509	0.00874
1.95000	0.00088	0.00032	0.00057	0.00200	-3.60800	-89.64000	0.08362	-0.01739	0.10332	0.01285	-0.02509	0.00874
1.95200	0.00088	0.00032	0.00057	0.00200	-3.60800	-89.64000	0.08362	-0.01739	0.10332	0.01285	-0.02509	0.00874
1.95400	0.00088	0.00032	0.00057	0.00200	0.00000	0.00000	0.08362	-0.01739	0.10332	0.01285	-0.02509	0.00874
1.95600	-0.00060	0.00052	0.00042	0.00332	-3.69820	-89.64000	0.05976	0.00134	0.09531	0.01049	-0.02776	0.01018
1.95800	-0.00060	0.00052	0.00042	0.00332	-3.78840	-89.73000	0.05976	0.00134	0.09531	0.01049	-0.02776	0.01018
1.96000	-0.00060	0.00052	0.00042	0.00332	-3.78840	-89.82000	0.05976	0.00134	0.09531	0.01049	-0.02776	0.01018
1.96200	-0.00060	0.00052	0.00042	0.00332	-3.69820	-89.73000	0.05976	0.00134	0.09531	0.01049	-0.02776	0.01018
1.96400	-0.00074	0.00045	0.00054	0.00063	-3.78840	-89.73000	0.08486	-0.03745	0.04981	0.01440	-0.01851	0.00247
1.96600	-0.00074	0.00045	0.00054	0.00063	-3.69820	-89.73000	0.08486	-0.03745	0.04981	0.01440	-0.01851	0.00247
1.96800	-0.00074	0.00045	0.00054	0.00063	0.00000	0.00000	0.08486	-0.03745	0.04981	0.01440	-0.01851	0.00247
1.97000	-0.00074	0.00045	0.00054	0.00063	-3.69820	-89.82000	0.08486	-0.03745	0.04981	0.01440	-0.01851	0.00247
1.97200	-0.00043	0.00049	0.00059	0.00064	-3.69820	-89.91000	0.05235	-0.02634	0.10394	0.01100	-0.01820	0.00062
1.97400	-0.00043	0.00049	0.00059	0.00064	-3.69820	-89.91000	0.05235	-0.02634	0.10394	0.01100	-0.01820	0.00062
1.97600	-0.00043	0.00049	0.00059	0.00064	-3.69820	-89.91000	0.05235	-0.02634	0.10394	0.01100	-0.01820	0.00062
1.97800	-0.00043	0.00049	0.00059	0.00064	-3.87860	-89.91000	0.05235	-0.02634	0.10394	0.01100	-0.01820	0.00062
1.98000	0.00091	0.00080	0.00042	0.00060	-3.69820	-89.73000	0.04361	-0.01965	0.08821	0.01676	-0.01809	0.00175
1.98200	0.00091	0.00080	0.00042	0.00060	0.00000	0.00000	0.04361	-0.01965	0.08821	0.01676	-0.01809	0.00175
1.98400	0.00091	0.00080	0.00042	0.00060	-3.60800	-89.73000	0.04361	-0.01965	0.08821	0.01676	-0.01809	0.00175
1.98600	0.00091	0.00080	0.00042	0.00060	-3.60800	-89.73000	0.04361	-0.01965	0.08821	0.01676	-0.01809	0.00175
1.98800	-0.00054	0.00069	0.00043	0.00090	-3.60800	-89.82000	0.07869	-0.05638	0.04781	0.01717	-0.01758	0.00072
1.99000	-0.00054	0.00069	0.00043	0.00090	-3.60800	-89.73000	0.07869	-0.05638	0.04781	0.01717	-0.01758	0.00072
1.99200	-0.00054	0.00069	0.00043	0.00090	-3.60800	-89.73000	0.07869	-0.05638	0.04781	0.01717	-0.01758	0.00072
1.99400	-0.00054	0.00069	0.00043	0.00090	0.00000	0.00000	0.07869	-0.05638	0.04781	0.01717	-0.01758	0.00072
1.99600	-0.00026	0.00050	0.00077	0.00159	0.00000	0.00000	0.04341	-0.03909	0.10332	0.00987	-0.01943	0.00627
1.99800	-0.00026	0.00050	0.00077	0.00159	-3.60800	-89.73000	0.04341	-0.03909	0.10332	0.00987	-0.01943	0.00627
2.00000	-0.00026	0.00050	0.00077	0.00159	-3.60800	-89.82000	0.04341	-0.03909	0.10332	0.00987	-0.01943	0.00627
2.00200	-0.00026	0.00050	0.00077	0.00159	-3.60800	-89.82000	0.04341	-0.03909	0.10332	0.00987	-0.01943	0.00627
2.00400	-0.00068	0.00057	0.00069	0.00129	-3.51780	-89.82000	0.05945	0.00350	0.09700	0.01049	-0.01686	0.00504
2.00600	-0.00068	0.00057	0.00069	0.00129	-3.42760	-89.55000	0.05945	0.00350	0.09700	0.01049	-0.01686	0.00504
2.00800	-0.00068	0.00057	0.00069	0.00129	-3.42760	-89.55000	0.05945	0.00350	0.09700	0.01049	-0.01686	0.00504
2.01000	-0.00068	0.00057	0.00069	0.00129	0.00000	0.00000	0.05945	0.00350	0.09700	0.01049	-0.01686	0.00504
2.01200	0.00071	0.00093	0.00064	0.00082	-3.42760	-89.55000	0.06974	-0.04733	0.04858	0.01275	-0.01717	-0.00062
2.01400	0.00071	0.00093	0.00064	0.00082	-3.51780	-89.64000	0.06974	-0.04733	0.04858	0.01275	-0.01717	-0.00062
2.01600	0.00071	0.00093	0.00064	0.00082	-3.60800	-89.64000	0.06974	-0.04733	0.04858	0.01275	-0.01717	-0.00062
2.01800	0.00071	0.00093	0.00064	0.00082	-3.60800	-89.64000	0.06974	-0.04733	0.04858	0.01275	-0.01717	-0.00062
2.02000	-0.00089	0.00033	0.00064	0.00073	-3.69820	-89.64000	0.03219	-0.02490	0.10286	0.01707	-0.02180	0.00545
2.02200	-0.00089	0.00033	0.00064	0.00073	-3.60800	-89.73000	0.03219	-0.02490	0.10286	0.01707	-0.02180	0.00545
2.02400	-0.00089	0.00033	0.00064	0.00073	0.00000	0.00000	0.03219	-0.02490	0.10286	0.01707	-0.02180	0.00545
2.02600	-0.00089	0.00033	0.00064	0.00073	-3.51780	-89.73000	0.03219	-0.02490	0.10286	0.01707	-0.02180	0.00545
2.02800	-0.00089	0.00115	0.00046	0.00114	-3.51780	-89.73000	0.04947	0.00381	0.10302	0.01018	-0.01151	0.00144
2.03000	-0.00089	0.00115	0.00046	0.00114	-3.42760	-89.82000	0.04947	0.00381	0.10302	0.01018	-0.01151	0.00144
2.03200	-0.00089	0.00115	0.00046	0.00114	-3.51780	-89.82000	0.04947	0.00381	0.10302	0.01018	-0.01151	0.00144
2.03400	-0.00089	0.00115	0.00046	0.00114	-3.60800	-89.73000	0.04947	0.00381	0.10302	0.01018	-0.01151	0.00144
2.03600	-0.00061	0.00055	0.00045	0.00245	-3.60800	-89.73000	0.05770	-0.05936	0.06030	0.01851	-0.01799	0.00082
2.03800	-0.00061	0.00055	0.00045	0.00245	0.00000	0.00000	0.05770	-0.05936	0.06030	0.01851	-0.01799	0.00082
2.04000	-0.00061	0.00055	0.00045	0.00245	-3.60800	-89.73000	0.05770	-0.05936	0.06030	0.01851	-0.01799	0.00082
2.04200	-0.00061	0.00055	0.00045	0.00245	-3.69820	-89.73000	0.05770	-0.05936	0.06030	0.01851	-0.01799	0.00082
2.04400	0.00079	0.00111	0.00029	0.00107	-3.60800	-89.64000	0.05750	-0.02253	0.10579	0.01296	-0.02159	0.00442
2.04600	0.00079	0.00111	0.00029	0.00107	-3.60800	-89.64000	0.05750	-0.02253	0.10579	0.01296	-0.02159	0.00442
2.04800	0.00079	0.00111	0.00029	0.00107	-3.60800	-89.64000	0.05750	-0.02253	0.10579	0.01296	-0.02159	0.00442
2.05000	0.00079	0.00111	0.00029	0.00107	-3.51780	-89.73000	0.05750	-0.02253	0.10579	0.01296	-0.02159	0.00442
2.05200	-0.00057	0.00011	0.00044	0.00150	0.00000	0.00000	0.05482	-0.00535	0.10518	0.01059	-0.01871	-0.00021
2.05400	-0.00057	0.00011	0.00044	0.00150	-3.51780	-89.73000	0.05482	-0.00535	0.10518	0.01059	-0.01871	-0.00021
