/***********************************************************
* Ocean Resources and Renewable Energy Laboratory
* Version: v1.0 (Released on May 1st, 2021)
* Programmed by: Jessica Nguyen (Email: nvnguyen@umass.edu)
*----------------------------------------------------------
* Project Name:	NREL_OSWEC_column_w_springs
* Project Lead:	JD
* Labview Operator:	JD
* Comments:	OSWEC scale model with 5.25" diameter cylindrical foundation and torsional springs. Model centered in window 2,  193.5 in from the start of the tank; probe positions: probe 1 (sonic, front) - 134 in; probe 2 (sonic, alongside) - 193.5 in; probe 3 (staff, back) - 274.5 in ; probe 4 (staff, back) - 332.5 in. Data aquisition specifications: wave start time: 0 s; wave end time: 40 s; delta t: 0.05; ramp time: 3 s; end time delay: 20 s; sampling rate: 2 ms.
* Date and Time:	Thu 10 Jun 2021 12:17:55 PM EDT
***********************************************************/

"Time(s)"	"ForceX(N)"	"ForceY(N)"	"ForceZ(N)"	"MomentX"	"MomentY"	"MomentZ"	
0.00000	0.00000	0.00000	0.00000	0.00000	0.00000	0.00000
0.00200	0.00000	0.00000	0.00000	0.00000	0.00000	0.00000
0.00400	0.00000	0.00000	0.00000	0.00000	0.00000	0.00000
0.00600	0.00000	0.00000	0.00000	0.00000	0.00000	0.00000
0.00800	0.00000	0.00000	0.00000	0.00000	0.00000	0.00000
0.01000	0.00000	0.00000	0.00000	0.00000	0.00000	0.00000
0.01200	0.00000	0.00000	0.00000	0.00000	0.00000	0.00000
0.01400	0.00000	0.00000	0.00000	0.00000	0.00000	0.00000
0.01600	0.00000	0.00000	0.00000	0.00000	0.00000	0.00000
0.01800	0.00000	0.00000	0.00000	0.00000	0.00000	0.00000
0.02000	0.00000	0.00000	0.00000	0.00000	0.00000	0.00000
0.02200	0.00000	0.00000	0.00000	0.00000	0.00000	0.00000
0.02400	0.00000	0.00000	0.00000	0.00000	0.00000	0.00000
0.02600	0.00000	0.00000	0.00000	0.00000	0.00000	0.00000
0.02800	0.00000	0.00000	0.00000	0.00000	0.00000	0.00000
0.03000	0.00000	0.00000	0.00000	0.00000	0.00000	0.00000
0.03200	0.00000	0.00000	0.00000	0.00000	0.00000	0.00000
0.03400	0.00000	0.00000	0.00000	0.00000	0.00000	0.00000
0.03600	0.00000	0.00000	0.00000	0.00000	0.00000	0.00000
0.03800	0.00000	0.00000	0.00000	0.00000	0.00000	0.00000
0.04000	0.00000	0.00000	0.00000	0.00000	0.00000	0.00000
0.04200	0.00000	0.00000	0.00000	0.00000	0.00000	0.00000
0.04400	0.00000	0.00000	0.00000	0.00000	0.00000	0.00000
0.04600	0.00000	0.00000	0.00000	0.00000	0.00000	0.00000
0.04800	0.00000	0.00000	0.00000	0.00000	0.00000	0.00000
0.05000	0.00000	0.00000	0.00000	0.00000	0.00000	0.00000
0.05200	0.00000	0.00000	0.00000	0.00000	0.00000	0.00000
0.05400	0.00000	0.00000	0.00000	0.00000	0.00000	0.00000
0.05600	0.00000	0.00000	0.00000	0.00000	0.00000	0.00000
0.05800	0.00000	0.00000	0.00000	0.00000	0.00000	0.00000
0.06000	0.00000	0.00000	0.00000	0.00000	0.00000	0.00000
0.06200	0.00000	0.00000	0.00000	0.00000	0.00000	0.00000
0.06400	0.00000	0.00000	0.00000	0.00000	0.00000	0.00000
0.06600	0.00000	0.00000	0.00000	0.00000	0.00000	0.00000
0.06800	0.00000	0.00000	0.00000	0.00000	0.00000	0.00000
0.07000	0.00000	0.00000	0.00000	0.00000	0.00000	0.00000
0.07200	0.00000	0.00000	0.00000	0.00000	0.00000	0.00000
0.07400	0.00000	0.00000	0.00000	0.00000	0.00000	0.00000
0.07600	0.00000	0.00000	0.00000	0.00000	0.00000	0.00000
0.07800	0.00000	0.00000	0.00000	0.00000	0.00000	0.00000
0.08000	0.00000	0.00000	0.00000	0.00000	0.00000	0.00000
0.08200	0.00000	0.00000	0.00000	0.00000	0.00000	0.00000
0.08400	0.00000	0.00000	0.00000	0.00000	0.00000	0.00000
0.08600	0.00000	0.00000	0.00000	0.00000	0.00000	0.00000
0.08800	0.00000	0.00000	0.00000	0.00000	0.00000	0.00000
0.09000	0.00000	0.00000	0.00000	0.00000	0.00000	0.00000
0.09200	0.00000	0.00000	0.00000	0.00000	0.00000	0.00000
0.09400	0.00000	0.00000	0.00000	0.00000	0.00000	0.00000
0.09600	0.00000	0.00000	0.00000	0.00000	0.00000	0.00000
0.09800	0.00000	0.00000	0.00000	0.00000	0.00000	0.00000
0.10000	0.00000	0.00000	0.00000	0.00000	0.00000	0.00000
0.10200	0.00000	0.00000	0.00000	0.00000	0.00000	0.00000
0.10400	0.00000	0.00000	0.00000	0.00000	0.00000	0.00000
0.10600	0.00000	0.00000	0.00000	0.00000	0.00000	0.00000
0.10800	0.00000	0.00000	0.00000	0.00000	0.00000	0.00000
0.11000	0.00000	0.00000	0.00000	0.00000	0.00000	0.00000
0.11200	0.00000	0.00000	0.00000	0.00000	0.00000	0.00000
0.11400	0.00000	0.00000	0.00000	0.00000	0.00000	0.00000
0.11600	0.00000	0.00000	0.00000	0.00000	0.00000	0.00000
0.11800	0.00000	0.00000	0.00000	0.00000	0.00000	0.00000
0.12000	0.00000	0.00000	0.00000	0.00000	0.00000	0.00000
0.12200	0.00000	0.00000	0.00000	0.00000	0.00000	0.00000
0.12400	0.00000	0.00000	0.00000	0.00000	0.00000	0.00000
0.12600	0.00000	0.00000	0.00000	0.00000	0.00000	0.00000
0.12800	0.00000	0.00000	0.00000	0.00000	0.00000	0.00000
0.13000	0.00000	0.00000	0.00000	0.00000	0.00000	0.00000
0.13200	0.00000	0.00000	0.00000	0.00000	0.00000	0.00000
0.13400	0.00000	0.00000	0.00000	0.00000	0.00000	0.00000
0.13600	0.00000	0.00000	0.00000	0.00000	0.00000	0.00000
0.13800	0.00000	0.00000	0.00000	0.00000	0.00000	0.00000
0.14000	0.00000	0.00000	0.00000	0.00000	0.00000	0.00000
0.14200	0.00000	0.00000	0.00000	0.00000	0.00000	0.00000
0.14400	0.00000	0.00000	0.00000	0.00000	0.00000	0.00000
0.14600	0.00000	0.00000	0.00000	0.00000	0.00000	0.00000
0.14800	0.00000	0.00000	0.00000	0.00000	0.00000	0.00000
0.15000	0.00000	0.00000	0.00000	0.00000	0.00000	0.00000
0.15200	0.00000	0.00000	0.00000	0.00000	0.00000	0.00000
0.15400	0.00000	0.00000	0.00000	0.00000	0.00000	0.00000
0.15600	0.00000	0.00000	0.00000	0.00000	0.00000	0.00000
0.15800	0.00000	0.00000	0.00000	0.00000	0.00000	0.00000
0.16000	0.00000	0.00000	0.00000	0.00000	0.00000	0.00000
0.16200	0.00000	0.00000	0.00000	0.00000	0.00000	0.00000
0.16400	0.00000	0.00000	0.00000	0.00000	0.00000	0.00000
0.16600	0.00000	0.00000	0.00000	0.00000	0.00000	0.00000
0.16800	0.00000	0.00000	0.00000	0.00000	0.00000	0.00000
0.17000	0.00000	0.00000	0.00000	0.00000	0.00000	0.00000
0.17200	0.00000	0.00000	0.00000	0.00000	0.00000	0.00000
0.17400	0.00000	0.00000	0.00000	0.00000	0.00000	0.00000
0.17600	0.00000	0.00000	0.00000	0.00000	0.00000	0.00000
0.17800	0.00000	0.00000	0.00000	0.00000	0.00000	0.00000
0.18000	0.00000	0.00000	0.00000	0.00000	0.00000	0.00000
0.18200	0.00000	0.00000	0.00000	0.00000	0.00000	0.00000
0.18400	0.00000	0.00000	0.00000	0.00000	0.00000	0.00000
0.18600	0.00000	0.00000	0.00000	0.00000	0.00000	0.00000
0.18800	0.00000	0.00000	0.00000	0.00000	0.00000	0.00000
0.19000	0.00000	0.00000	0.00000	0.00000	0.00000	0.00000
0.19200	0.00000	0.00000	0.00000	0.00000	0.00000	0.00000
0.19400	0.00000	0.00000	0.00000	0.00000	0.00000	0.00000
0.19600	0.00000	0.00000	0.00000	0.00000	0.00000	0.00000
0.19800	0.00000	0.00000	0.00000	0.00000	0.00000	0.00000
0.20000	0.00000	0.00000	0.00000	0.00000	0.00000	0.00000
0.20200	0.00000	0.00000	0.00000	0.00000	0.00000	0.00000
0.20400	0.00000	0.00000	0.00000	0.00000	0.00000	0.00000
0.20600	0.00000	0.00000	0.00000	0.00000	0.00000	0.00000
0.20800	0.00000	0.00000	0.00000	0.00000	0.00000	0.00000
0.21000	0.00000	0.00000	0.00000	0.00000	0.00000	0.00000
0.21200	0.00000	0.00000	0.00000	0.00000	0.00000	0.00000
0.21400	0.00000	0.00000	0.00000	0.00000	0.00000	0.00000
0.21600	0.00000	0.00000	0.00000	0.00000	0.00000	0.00000
0.21800	0.00000	0.00000	0.00000	0.00000	0.00000	0.00000
0.22000	0.00000	0.00000	0.00000	0.00000	0.00000	0.00000
0.22200	0.00000	0.00000	0.00000	0.00000	0.00000	0.00000
0.22400	0.00000	0.00000	0.00000	0.00000	0.00000	0.00000
0.22600	0.00000	0.00000	0.00000	0.00000	0.00000	0.00000
0.22800	0.00000	0.00000	0.00000	0.00000	0.00000	0.00000
0.23000	0.00000	0.00000	0.00000	0.00000	0.00000	0.00000
0.23200	0.00000	0.00000	0.00000	0.00000	0.00000	0.00000
0.23400	0.00000	0.00000	0.00000	0.00000	0.00000	0.00000
0.23600	0.00000	0.00000	0.00000	0.00000	0.00000	0.00000
0.23800	0.00000	0.00000	0.00000	0.00000	0.00000	0.00000
0.24000	0.00000	0.00000	0.00000	0.00000	0.00000	0.00000
0.24200	0.00000	0.00000	0.00000	0.00000	0.00000	0.00000
0.24400	0.00000	0.00000	0.00000	0.00000	0.00000	0.00000
0.24600	0.00000	0.00000	0.00000	0.00000	0.00000	0.00000
0.24800	0.00000	0.00000	0.00000	0.00000	0.00000	0.00000
0.25000	0.00000	0.00000	0.00000	0.00000	0.00000	0.00000
0.25200	0.00000	0.00000	0.00000	0.00000	0.00000	0.00000
0.25400	0.00000	0.00000	0.00000	0.00000	0.00000	0.00000
0.25600	0.00000	0.00000	0.00000	0.00000	0.00000	0.00000
0.25800	0.00000	0.00000	0.00000	0.00000	0.00000	0.00000
0.26000	0.00000	0.00000	0.00000	0.00000	0.00000	0.00000
0.26200	0.00000	0.00000	0.00000	0.00000	0.00000	0.00000
0.26400	0.00000	0.00000	0.00000	0.00000	0.00000	0.00000
0.26600	0.00000	0.00000	0.00000	0.00000	0.00000	0.00000
0.26800	0.00000	0.00000	0.00000	0.00000	0.00000	0.00000
0.27000	0.00000	0.00000	0.00000	0.00000	0.00000	0.00000
0.27200	0.00000	0.00000	0.00000	0.00000	0.00000	0.00000
0.27400	0.00000	0.00000	0.00000	0.00000	0.00000	0.00000
0.27600	0.00000	0.00000	0.00000	0.00000	0.00000	0.00000
0.27800	0.00000	0.00000	0.00000	0.00000	0.00000	0.00000
0.28000	0.00000	0.00000	0.00000	0.00000	0.00000	0.00000
0.28200	0.00000	0.00000	0.00000	0.00000	0.00000	0.00000
0.28400	0.00000	0.00000	0.00000	0.00000	0.00000	0.00000
0.28600	0.00000	0.00000	0.00000	0.00000	0.00000	0.00000
0.28800	0.00000	0.00000	0.00000	0.00000	0.00000	0.00000
0.29000	0.00000	0.00000	0.00000	0.00000	0.00000	0.00000
0.29200	0.00000	0.00000	0.00000	0.00000	0.00000	0.00000
0.29400	0.00000	0.00000	0.00000	0.00000	0.00000	0.00000
0.29600	0.00000	0.00000	0.00000	0.00000	0.00000	0.00000
0.29800	0.00000	0.00000	0.00000	0.00000	0.00000	0.00000
0.30000	0.00000	0.00000	0.00000	0.00000	0.00000	0.00000
0.30200	0.00000	0.00000	0.00000	0.00000	0.00000	0.00000
0.30400	0.00000	0.00000	0.00000	0.00000	0.00000	0.00000
0.30600	0.00000	0.00000	0.00000	0.00000	0.00000	0.00000
0.30800	0.00000	0.00000	0.00000	0.00000	0.00000	0.00000
0.31000	0.00000	0.00000	0.00000	0.00000	0.00000	0.00000
0.31200	0.00000	0.00000	0.00000	0.00000	0.00000	0.00000
0.31400	0.00000	0.00000	0.00000	0.00000	0.00000	0.00000
0.31600	0.00000	0.00000	0.00000	0.00000	0.00000	0.00000
0.31800	0.00000	0.00000	0.00000	0.00000	0.00000	0.00000
0.32000	0.00000	0.00000	0.00000	0.00000	0.00000	0.00000
0.32200	0.00000	0.00000	0.00000	0.00000	0.00000	0.00000
0.32400	0.00000	0.00000	0.00000	0.00000	0.00000	0.00000
0.32600	0.00000	0.00000	0.00000	0.00000	0.00000	0.00000
0.32800	0.00000	0.00000	0.00000	0.00000	0.00000	0.00000
0.33000	0.00000	0.00000	0.00000	0.00000	0.00000	0.00000
0.33200	0.00000	0.00000	0.00000	0.00000	0.00000	0.00000
0.33400	0.00000	0.00000	0.00000	0.00000	0.00000	0.00000
0.33600	0.00000	0.00000	0.00000	0.00000	0.00000	0.00000
0.33800	0.00000	0.00000	0.00000	0.00000	0.00000	0.00000
0.34000	0.00000	0.00000	0.00000	0.00000	0.00000	0.00000
0.34200	0.00000	0.00000	0.00000	0.00000	0.00000	0.00000
0.34400	0.00000	0.00000	0.00000	0.00000	0.00000	0.00000
0.34600	0.00000	0.00000	0.00000	0.00000	0.00000	0.00000
0.34800	0.00000	0.00000	0.00000	0.00000	0.00000	0.00000
0.35000	0.00000	0.00000	0.00000	0.00000	0.00000	0.00000
0.35200	0.00000	0.00000	0.00000	0.00000	0.00000	0.00000
0.35400	0.00000	0.00000	0.00000	0.00000	0.00000	0.00000
0.35600	0.00000	0.00000	0.00000	0.00000	0.00000	0.00000
0.35800	0.00000	0.00000	0.00000	0.00000	0.00000	0.00000
0.36000	0.00000	0.00000	0.00000	0.00000	0.00000	0.00000
0.36200	0.00000	0.00000	0.00000	0.00000	0.00000	0.00000
0.36400	0.00000	0.00000	0.00000	0.00000	0.00000	0.00000
0.36600	0.00000	0.00000	0.00000	0.00000	0.00000	0.00000
0.36800	0.00000	0.00000	0.00000	0.00000	0.00000	0.00000
0.37000	0.00000	0.00000	0.00000	0.00000	0.00000	0.00000
0.37200	0.00000	0.00000	0.00000	0.00000	0.00000	0.00000
0.37400	0.00000	0.00000	0.00000	0.00000	0.00000	0.00000
0.37600	0.00000	0.00000	0.00000	0.00000	0.00000	0.00000
0.37800	0.00000	0.00000	0.00000	0.00000	0.00000	0.00000
0.38000	0.00000	0.00000	0.00000	0.00000	0.00000	0.00000
0.38200	0.00000	0.00000	0.00000	0.00000	0.00000	0.00000
0.38400	0.00000	0.00000	0.00000	0.00000	0.00000	0.00000
0.38600	0.00000	0.00000	0.00000	0.00000	0.00000	0.00000
0.38800	0.00000	0.00000	0.00000	0.00000	0.00000	0.00000
0.39000	0.00000	0.00000	0.00000	0.00000	0.00000	0.00000
0.39200	0.00000	0.00000	0.00000	0.00000	0.00000	0.00000
0.39400	0.00000	0.00000	0.00000	0.00000	0.00000	0.00000
0.39600	0.00000	0.00000	0.00000	0.00000	0.00000	0.00000
0.39800	0.00000	0.00000	0.00000	0.00000	0.00000	0.00000
0.40000	0.00000	0.00000	0.00000	0.00000	0.00000	0.00000
0.40200	0.00000	0.00000	0.00000	0.00000	0.00000	0.00000
0.40400	0.00000	0.00000	0.00000	0.00000	0.00000	0.00000
0.40600	0.00000	0.00000	0.00000	0.00000	0.00000	0.00000
0.40800	0.00000	0.00000	0.00000	0.00000	0.00000	0.00000
0.41000	0.00000	0.00000	0.00000	0.00000	0.00000	0.00000
0.41200	0.00000	0.00000	0.00000	0.00000	0.00000	0.00000
0.41400	0.00000	0.00000	0.00000	0.00000	0.00000	0.00000
0.41600	0.00000	0.00000	0.00000	0.00000	0.00000	0.00000
0.41800	0.00000	0.00000	0.00000	0.00000	0.00000	0.00000
0.42000	0.00000	0.00000	0.00000	0.00000	0.00000	0.00000
0.42200	0.00000	0.00000	0.00000	0.00000	0.00000	0.00000
0.42400	0.00000	0.00000	0.00000	0.00000	0.00000	0.00000
0.42600	0.00000	0.00000	0.00000	0.00000	0.00000	0.00000
0.42800	0.00000	0.00000	0.00000	0.00000	0.00000	0.00000
0.43000	0.00000	0.00000	0.00000	0.00000	0.00000	0.00000
0.43200	0.00000	0.00000	0.00000	0.00000	0.00000	0.00000
0.43400	0.00000	0.00000	0.00000	0.00000	0.00000	0.00000
0.43600	0.00000	0.00000	0.00000	0.00000	0.00000	0.00000
0.43800	0.00000	0.00000	0.00000	0.00000	0.00000	0.00000
0.44000	0.00000	0.00000	0.00000	0.00000	0.00000	0.00000
0.44200	0.00000	0.00000	0.00000	0.00000	0.00000	0.00000
0.44400	0.00000	0.00000	0.00000	0.00000	0.00000	0.00000
0.44600	0.00000	0.00000	0.00000	0.00000	0.00000	0.00000
0.44800	0.00000	0.00000	0.00000	0.00000	0.00000	0.00000
0.45000	0.00000	0.00000	0.00000	0.00000	0.00000	0.00000
0.45200	0.00000	0.00000	0.00000	0.00000	0.00000	0.00000
0.45400	0.00000	0.00000	0.00000	0.00000	0.00000	0.00000
0.45600	0.00000	0.00000	0.00000	0.00000	0.00000	0.00000
0.45800	0.00000	0.00000	0.00000	0.00000	0.00000	0.00000
0.46000	0.00000	0.00000	0.00000	0.00000	0.00000	0.00000
0.46200	0.00000	0.00000	0.00000	0.00000	0.00000	0.00000
0.46400	0.00000	0.00000	0.00000	0.00000	0.00000	0.00000
0.46600	0.00000	0.00000	0.00000	0.00000	0.00000	0.00000
0.46800	0.00000	0.00000	0.00000	0.00000	0.00000	0.00000
0.47000	0.00000	0.00000	0.00000	0.00000	0.00000	0.00000
0.47200	0.00000	0.00000	0.00000	0.00000	0.00000	0.00000
0.47400	0.00000	0.00000	0.00000	0.00000	0.00000	0.00000
0.47600	0.00000	0.00000	0.00000	0.00000	0.00000	0.00000
0.47800	0.00000	0.00000	0.00000	0.00000	0.00000	0.00000
0.48000	0.00000	0.00000	0.00000	0.00000	0.00000	0.00000
0.48200	0.00000	0.00000	0.00000	0.00000	0.00000	0.00000
0.48400	0.00000	0.00000	0.00000	0.00000	0.00000	0.00000
0.48600	0.00000	0.00000	0.00000	0.00000	0.00000	0.00000
0.48800	0.00000	0.00000	0.00000	0.00000	0.00000	0.00000
0.49000	0.00000	0.00000	0.00000	0.00000	0.00000	0.00000
0.49200	0.00000	0.00000	0.00000	0.00000	0.00000	0.00000
0.49400	0.00000	0.00000	0.00000	0.00000	0.00000	0.00000
0.49600	0.00000	0.00000	0.00000	0.00000	0.00000	0.00000
0.49800	0.00000	0.00000	0.00000	0.00000	0.00000	0.00000
0.50000	0.00000	0.00000	0.00000	0.00000	0.00000	0.00000
0.50200	0.00000	0.00000	0.00000	0.00000	0.00000	0.00000
0.50400	0.00000	0.00000	0.00000	0.00000	0.00000	0.00000
0.50600	0.00000	0.00000	0.00000	0.00000	0.00000	0.00000
0.50800	0.00000	0.00000	0.00000	0.00000	0.00000	0.00000
0.51000	0.00000	0.00000	0.00000	0.00000	0.00000	0.00000
0.51200	0.00000	0.00000	0.00000	0.00000	0.00000	0.00000
0.51400	0.00000	0.00000	0.00000	0.00000	0.00000	0.00000
0.51600	0.00000	0.00000	0.00000	0.00000	0.00000	0.00000
0.51800	0.00000	0.00000	0.00000	0.00000	0.00000	0.00000
0.52000	0.00000	0.00000	0.00000	0.00000	0.00000	0.00000
0.52200	0.00000	0.00000	0.00000	0.00000	0.00000	0.00000
0.52400	0.00000	0.00000	0.00000	0.00000	0.00000	0.00000
0.52600	0.00000	0.00000	0.00000	0.00000	0.00000	0.00000
0.52800	0.00000	0.00000	0.00000	0.00000	0.00000	0.00000
0.53000	0.00000	0.00000	0.00000	0.00000	0.00000	0.00000
0.53200	0.00000	0.00000	0.00000	0.00000	0.00000	0.00000
0.53400	0.00000	0.00000	0.00000	0.00000	0.00000	0.00000
0.53600	0.00000	0.00000	0.00000	0.00000	0.00000	0.00000
0.53800	0.00000	0.00000	0.00000	0.00000	0.00000	0.00000
0.54000	0.00000	0.00000	0.00000	0.00000	0.00000	0.00000
0.54200	0.00000	0.00000	0.00000	0.00000	0.00000	0.00000
0.54400	0.00000	0.00000	0.00000	0.00000	0.00000	0.00000
0.54600	0.00000	0.00000	0.00000	0.00000	0.00000	0.00000
0.54800	0.00000	0.00000	0.00000	0.00000	0.00000	0.00000
0.55000	0.00000	0.00000	0.00000	0.00000	0.00000	0.00000
0.55200	0.00000	0.00000	0.00000	0.00000	0.00000	0.00000
0.55400	0.00000	0.00000	0.00000	0.00000	0.00000	0.00000
0.55600	0.00000	0.00000	0.00000	0.00000	0.00000	0.00000
0.55800	0.00000	0.00000	0.00000	0.00000	0.00000	0.00000
0.56000	0.00000	0.00000	0.00000	0.00000	0.00000	0.00000
0.56200	0.00000	0.00000	0.00000	0.00000	0.00000	0.00000
0.56400	0.00000	0.00000	0.00000	0.00000	0.00000	0.00000
0.56600	0.00000	0.00000	0.00000	0.00000	0.00000	0.00000
0.56800	0.00000	0.00000	0.00000	0.00000	0.00000	0.00000
0.57000	0.00000	0.00000	0.00000	0.00000	0.00000	0.00000
0.57200	0.00248	0.00169	0.00200	0.00225	0.00351	0.00167
0.57400	0.00248	0.00169	0.00200	0.00225	0.00351	0.00167
0.57600	0.00248	0.00169	0.00200	0.00225	0.00351	0.00167
0.57800	0.00248	0.00169	0.00200	0.00225	0.00351	0.00167
0.58000	0.00248	0.00169	0.00200	0.00225	0.00351	0.00167
0.58200	0.00248	0.00169	0.00200	0.00225	0.00351	0.00167
0.58400	0.00248	0.00169	0.00200	0.00225	0.00351	0.00167
0.58600	0.00248	0.00169	0.00200	0.00225	0.00351	0.00167
0.58800	0.00248	0.00169	0.00200	0.00225	0.00351	0.00167
0.59000	0.00248	0.00169	0.00200	0.00225	0.00351	0.00167
0.59200	0.00248	0.00169	0.00200	0.00225	0.00351	0.00167
0.59400	0.00248	0.00169	0.00200	0.00225	0.00351	0.00167
0.59600	0.00248	0.00169	0.00200	0.00225	0.00351	0.00167
0.59800	0.00248	0.00169	0.00200	0.00225	0.00351	0.00167
0.60000	0.00248	0.00169	0.00200	0.00225	0.00351	0.00167
0.60200	0.00248	0.00169	0.00200	0.00225	0.00351	0.00167
0.60400	0.00248	0.00169	0.00200	0.00225	0.00351	0.00167
0.60600	0.00248	0.00169	0.00200	0.00225	0.00351	0.00167
0.60800	0.00248	0.00169	0.00200	0.00225	0.00351	0.00167
0.61000	0.00248	0.00169	0.00200	0.00225	0.00351	0.00167
0.61200	0.00248	0.00169	0.00200	0.00225	0.00351	0.00167
0.61400	0.00248	0.00169	0.00200	0.00225	0.00351	0.00167
0.61600	0.00248	0.00169	0.00200	0.00225	0.00351	0.00167
0.61800	0.00248	0.00169	0.00200	0.00225	0.00351	0.00167
0.62000	0.00248	0.00169	0.00200	0.00225	0.00351	0.00167
0.62200	0.00248	0.00169	0.00200	0.00225	0.00351	0.00167
0.62400	0.00248	0.00169	0.00200	0.00225	0.00351	0.00167
0.62600	0.00248	0.00169	0.00200	0.00225	0.00351	0.00167
0.62800	-0.00120	0.00143	0.00315	0.00284	0.00470	0.00109
0.63000	-0.00120	0.00143	0.00315	0.00284	0.00470	0.00109
0.63200	-0.00120	0.00143	0.00315	0.00284	0.00470	0.00109
0.63400	-0.00120	0.00143	0.00315	0.00284	0.00470	0.00109
0.63600	-0.00120	0.00143	0.00315	0.00284	0.00470	0.00109
0.63800	-0.00120	0.00143	0.00315	0.00284	0.00470	0.00109
0.64000	-0.00120	0.00143	0.00315	0.00284	0.00470	0.00109
0.64200	-0.00120	0.00143	0.00315	0.00284	0.00470	0.00109
0.64400	-0.00120	0.00143	0.00315	0.00284	0.00470	0.00109
0.64600	-0.00120	0.00143	0.00315	0.00284	0.00470	0.00109
0.64800	-0.00120	0.00143	0.00315	0.00284	0.00470	0.00109
0.65000	-0.00120	0.00143	0.00315	0.00284	0.00470	0.00109
0.65200	-0.00120	0.00143	0.00315	0.00284	0.00470	0.00109
0.65400	-0.00120	0.00143	0.00315	0.00284	0.00470	0.00109
0.65600	-0.00120	0.00143	0.00315	0.00284	0.00470	0.00109
0.65800	-0.00120	0.00143	0.00315	0.00284	0.00470	0.00109
0.66000	-0.00120	0.00143	0.00315	0.00284	0.00470	0.00109
0.66200	-0.00120	0.00143	0.00315	0.00284	0.00470	0.00109
0.66400	-0.00120	0.00143	0.00315	0.00284	0.00470	0.00109
0.66600	-0.00120	0.00143	0.00315	0.00284	0.00470	0.00109
0.66800	-0.00120	0.00143	0.00315	0.00284	0.00470	0.00109
0.67000	-0.00120	0.00143	0.00315	0.00284	0.00470	0.00109
0.67200	-0.00120	0.00143	0.00315	0.00284	0.00470	0.00109
0.67400	-0.00120	0.00143	0.00315	0.00284	0.00470	0.00109
0.67600	-0.00120	0.00143	0.00315	0.00284	0.00470	0.00109
0.67800	-0.00120	0.00143	0.00315	0.00284	0.00470	0.00109
0.68000	-0.00120	0.00143	0.00315	0.00284	0.00470	0.00109
0.68200	-0.00120	0.00143	0.00315	0.00284	0.00470	0.00109
0.68400	0.00066	0.00524	-0.00260	0.00469	-0.00075	0.00150
0.68600	0.00066	0.00524	-0.00260	0.00469	-0.00075	0.00150
0.68800	0.00066	0.00524	-0.00260	0.00469	-0.00075	0.00150
0.69000	0.00066	0.00524	-0.00260	0.00469	-0.00075	0.00150
0.69200	0.00066	0.00524	-0.00260	0.00469	-0.00075	0.00150
0.69400	0.00066	0.00524	-0.00260	0.00469	-0.00075	0.00150
0.69600	0.00066	0.00524	-0.00260	0.00469	-0.00075	0.00150
0.69800	0.00066	0.00524	-0.00260	0.00469	-0.00075	0.00150
0.70000	0.00066	0.00524	-0.00260	0.00469	-0.00075	0.00150
0.70200	0.00066	0.00524	-0.00260	0.00469	-0.00075	0.00150
0.70400	0.00066	0.00524	-0.00260	0.00469	-0.00075	0.00150
0.70600	0.00066	0.00524	-0.00260	0.00469	-0.00075	0.00150
0.70800	0.00066	0.00524	-0.00260	0.00469	-0.00075	0.00150
0.71000	0.00066	0.00524	-0.00260	0.00469	-0.00075	0.00150
0.71200	0.00066	0.00524	-0.00260	0.00469	-0.00075	0.00150
0.71400	0.00066	0.00524	-0.00260	0.00469	-0.00075	0.00150
0.71600	0.00066	0.00524	-0.00260	0.00469	-0.00075	0.00150
0.71800	0.00066	0.00524	-0.00260	0.00469	-0.00075	0.00150
0.72000	0.00066	0.00524	-0.00260	0.00469	-0.00075	0.00150
0.72200	0.00066	0.00524	-0.00260	0.00469	-0.00075	0.00150
0.72400	0.00066	0.00524	-0.00260	0.00469	-0.00075	0.00150
0.72600	0.00066	0.00524	-0.00260	0.00469	-0.00075	0.00150
0.72800	0.00066	0.00524	-0.00260	0.00469	-0.00075	0.00150
0.73000	0.00066	0.00524	-0.00260	0.00469	-0.00075	0.00150
0.73200	0.00066	0.00524	-0.00260	0.00469	-0.00075	0.00150
0.73400	0.00066	0.00524	-0.00260	0.00469	-0.00075	0.00150
0.73600	0.00066	0.00524	-0.00260	0.00469	-0.00075	0.00150
0.73800	0.00066	0.00524	-0.00260	0.00469	-0.00075	0.00150
0.74000	0.00066	0.00524	-0.00260	0.00469	-0.00075	0.00150
0.74200	0.00487	-0.00165	0.00737	0.00202	0.00347	0.00212
0.74400	0.00487	-0.00165	0.00737	0.00202	0.00347	0.00212
0.74600	0.00487	-0.00165	0.00737	0.00202	0.00347	0.00212
0.74800	0.00487	-0.00165	0.00737	0.00202	0.00347	0.00212
0.75000	0.00487	-0.00165	0.00737	0.00202	0.00347	0.00212
0.75200	0.00487	-0.00165	0.00737	0.00202	0.00347	0.00212
0.75400	0.00487	-0.00165	0.00737	0.00202	0.00347	0.00212
0.75600	0.00487	-0.00165	0.00737	0.00202	0.00347	0.00212
0.75800	0.00487	-0.00165	0.00737	0.00202	0.00347	0.00212
0.76000	0.00487	-0.00165	0.00737	0.00202	0.00347	0.00212
0.76200	0.00487	-0.00165	0.00737	0.00202	0.00347	0.00212
0.76400	0.00487	-0.00165	0.00737	0.00202	0.00347	0.00212
0.76600	0.00487	-0.00165	0.00737	0.00202	0.00347	0.00212
0.76800	0.00487	-0.00165	0.00737	0.00202	0.00347	0.00212
0.77000	0.00487	-0.00165	0.00737	0.00202	0.00347	0.00212
0.77200	0.00487	-0.00165	0.00737	0.00202	0.00347	0.00212
0.77400	0.00487	-0.00165	0.00737	0.00202	0.00347	0.00212
0.77600	0.00487	-0.00165	0.00737	0.00202	0.00347	0.00212
0.77800	0.00487	-0.00165	0.00737	0.00202	0.00347	0.00212
0.78000	0.00487	-0.00165	0.00737	0.00202	0.00347	0.00212
0.78200	0.00487	-0.00165	0.00737	0.00202	0.00347	0.00212
0.78400	0.00487	-0.00165	0.00737	0.00202	0.00347	0.00212
0.78600	0.00487	-0.00165	0.00737	0.00202	0.00347	0.00212
0.78800	0.00487	-0.00165	0.00737	0.00202	0.00347	0.00212
0.79000	0.00487	-0.00165	0.00737	0.00202	0.00347	0.00212
0.79200	0.00487	-0.00165	0.00737	0.00202	0.00347	0.00212
0.79400	0.00487	-0.00165	0.00737	0.00202	0.00347	0.00212
0.79600	0.00487	-0.00165	0.00737	0.00202	0.00347	0.00212
0.79800	0.00179	0.00329	-0.00024	0.00387	-0.00147	0.00222
0.80000	0.00179	0.00329	-0.00024	0.00387	-0.00147	0.00222
0.80200	0.00179	0.00329	-0.00024	0.00387	-0.00147	0.00222
0.80400	0.00179	0.00329	-0.00024	0.00387	-0.00147	0.00222
0.80600	0.00179	0.00329	-0.00024	0.00387	-0.00147	0.00222
0.80800	0.00179	0.00329	-0.00024	0.00387	-0.00147	0.00222
0.81000	0.00179	0.00329	-0.00024	0.00387	-0.00147	0.00222
0.81200	0.00179	0.00329	-0.00024	0.00387	-0.00147	0.00222
0.81400	0.00179	0.00329	-0.00024	0.00387	-0.00147	0.00222
0.81600	0.00179	0.00329	-0.00024	0.00387	-0.00147	0.00222
0.81800	0.00179	0.00329	-0.00024	0.00387	-0.00147	0.00222
0.82000	0.00179	0.00329	-0.00024	0.00387	-0.00147	0.00222
0.82200	0.00179	0.00329	-0.00024	0.00387	-0.00147	0.00222
0.82400	0.00179	0.00329	-0.00024	0.00387	-0.00147	0.00222
0.82600	0.00179	0.00329	-0.00024	0.00387	-0.00147	0.00222
0.82800	0.00179	0.00329	-0.00024	0.00387	-0.00147	0.00222
0.83000	0.00179	0.00329	-0.00024	0.00387	-0.00147	0.00222
0.83200	0.00179	0.00329	-0.00024	0.00387	-0.00147	0.00222
0.83400	0.00179	0.00329	-0.00024	0.00387	-0.00147	0.00222
0.83600	0.00179	0.00329	-0.00024	0.00387	-0.00147	0.00222
0.83800	0.00179	0.00329	-0.00024	0.00387	-0.00147	0.00222
0.84000	0.00179	0.00329	-0.00024	0.00387	-0.00147	0.00222
0.84200	0.00179	0.00329	-0.00024	0.00387	-0.00147	0.00222
0.84400	0.00179	0.00329	-0.00024	0.00387	-0.00147	0.00222
0.84600	0.00179	0.00329	-0.00024	0.00387	-0.00147	0.00222
0.84800	0.00179	0.00329	-0.00024	0.00387	-0.00147	0.00222
0.85000	0.00179	0.00329	-0.00024	0.00387	-0.00147	0.00222
0.85200	0.00179	0.00329	-0.00024	0.00387	-0.00147	0.00222
0.85400	0.00179	0.00329	-0.00024	0.00387	-0.00147	0.00222
0.85600	0.00189	0.00257	0.00408	0.00325	0.00398	0.00171
0.85800	0.00189	0.00257	0.00408	0.00325	0.00398	0.00171
0.86000	0.00189	0.00257	0.00408	0.00325	0.00398	0.00171
0.86200	0.00189	0.00257	0.00408	0.00325	0.00398	0.00171
0.86400	0.00189	0.00257	0.00408	0.00325	0.00398	0.00171
0.86600	0.00189	0.00257	0.00408	0.00325	0.00398	0.00171
0.86800	0.00189	0.00257	0.00408	0.00325	0.00398	0.00171
0.87000	0.00189	0.00257	0.00408	0.00325	0.00398	0.00171
0.87200	0.00189	0.00257	0.00408	0.00325	0.00398	0.00171
0.87400	0.00189	0.00257	0.00408	0.00325	0.00398	0.00171
0.87600	0.00189	0.00257	0.00408	0.00325	0.00398	0.00171
0.87800	0.00189	0.00257	0.00408	0.00325	0.00398	0.00171
0.88000	0.00189	0.00257	0.00408	0.00325	0.00398	0.00171
0.88200	0.00189	0.00257	0.00408	0.00325	0.00398	0.00171
0.88400	0.00189	0.00257	0.00408	0.00325	0.00398	0.00171
0.88600	0.00189	0.00257	0.00408	0.00325	0.00398	0.00171
0.88800	0.00189	0.00257	0.00408	0.00325	0.00398	0.00171
0.89000	0.00189	0.00257	0.00408	0.00325	0.00398	0.00171
0.89200	0.00189	0.00257	0.00408	0.00325	0.00398	0.00171
0.89400	0.00189	0.00257	0.00408	0.00325	0.00398	0.00171
0.89600	0.00189	0.00257	0.00408	0.00325	0.00398	0.00171
0.89800	0.00189	0.00257	0.00408	0.00325	0.00398	0.00171
0.90000	0.00189	0.00257	0.00408	0.00325	0.00398	0.00171
0.90200	0.00189	0.00257	0.00408	0.00325	0.00398	0.00171
0.90400	0.00189	0.00257	0.00408	0.00325	0.00398	0.00171
0.90600	0.00189	0.00257	0.00408	0.00325	0.00398	0.00171
0.90800	0.00189	0.00257	0.00408	0.00325	0.00398	0.00171
0.91000	0.00189	0.00257	0.00408	0.00325	0.00398	0.00171
0.91200	0.00189	0.00257	0.00408	0.00325	0.00398	0.00171
0.91400	0.00446	0.00133	0.00182	0.00315	-0.00034	0.00397
0.91600	0.00446	0.00133	0.00182	0.00315	-0.00034	0.00397
0.91800	0.00446	0.00133	0.00182	0.00315	-0.00034	0.00397
0.92000	0.00446	0.00133	0.00182	0.00315	-0.00034	0.00397
0.92200	0.00446	0.00133	0.00182	0.00315	-0.00034	0.00397
0.92400	0.00446	0.00133	0.00182	0.00315	-0.00034	0.00397
0.92600	0.00446	0.00133	0.00182	0.00315	-0.00034	0.00397
0.92800	0.00446	0.00133	0.00182	0.00315	-0.00034	0.00397
0.93000	0.00446	0.00133	0.00182	0.00315	-0.00034	0.00397
0.93200	0.00446	0.00133	0.00182	0.00315	-0.00034	0.00397
0.93400	0.00446	0.00133	0.00182	0.00315	-0.00034	0.00397
0.93600	0.00446	0.00133	0.00182	0.00315	-0.00034	0.00397
0.93800	0.00446	0.00133	0.00182	0.00315	-0.00034	0.00397
0.94000	0.00446	0.00133	0.00182	0.00315	-0.00034	0.00397
0.94200	0.00446	0.00133	0.00182	0.00315	-0.00034	0.00397
0.94400	0.00446	0.00133	0.00182	0.00315	-0.00034	0.00397
0.94600	0.00446	0.00133	0.00182	0.00315	-0.00034	0.00397
0.94800	0.00446	0.00133	0.00182	0.00315	-0.00034	0.00397
0.95000	0.00446	0.00133	0.00182	0.00315	-0.00034	0.00397
0.95200	0.00446	0.00133	0.00182	0.00315	-0.00034	0.00397
0.95400	0.00446	0.00133	0.00182	0.00315	-0.00034	0.00397
0.95600	0.00446	0.00133	0.00182	0.00315	-0.00034	0.00397
0.95800	0.00446	0.00133	0.00182	0.00315	-0.00034	0.00397
0.96000	0.00446	0.00133	0.00182	0.00315	-0.00034	0.00397
0.96200	0.00446	0.00133	0.00182	0.00315	-0.00034	0.00397
0.96400	0.00446	0.00133	0.00182	0.00315	-0.00034	0.00397
0.96600	0.00446	0.00133	0.00182	0.00315	-0.00034	0.00397
0.96800	0.00446	0.00133	0.00182	0.00315	-0.00034	0.00397
0.97000	0.00261	-0.00001	0.00017	0.00263	0.00203	0.00212
0.97200	0.00261	-0.00001	0.00017	0.00263	0.00203	0.00212
0.97400	0.00261	-0.00001	0.00017	0.00263	0.00203	0.00212
0.97600	0.00261	-0.00001	0.00017	0.00263	0.00203	0.00212
0.97800	0.00261	-0.00001	0.00017	0.00263	0.00203	0.00212
0.98000	0.00261	-0.00001	0.00017	0.00263	0.00203	0.00212
0.98200	0.00261	-0.00001	0.00017	0.00263	0.00203	0.00212
0.98400	0.00261	-0.00001	0.00017	0.00263	0.00203	0.00212
0.98600	0.00261	-0.00001	0.00017	0.00263	0.00203	0.00212
0.98800	0.00261	-0.00001	0.00017	0.00263	0.00203	0.00212
0.99000	0.00261	-0.00001	0.00017	0.00263	0.00203	0.00212
0.99200	0.00261	-0.00001	0.00017	0.00263	0.00203	0.00212
0.99400	0.00261	-0.00001	0.00017	0.00263	0.00203	0.00212
0.99600	0.00261	-0.00001	0.00017	0.00263	0.00203	0.00212
0.99800	0.00261	-0.00001	0.00017	0.00263	0.00203	0.00212
1.00000	0.00261	-0.00001	0.00017	0.00263	0.00203	0.00212
1.00200	0.00261	-0.00001	0.00017	0.00263	0.00203	0.00212
1.00400	0.00261	-0.00001	0.00017	0.00263	0.00203	0.00212
1.00600	0.00261	-0.00001	0.00017	0.00263	0.00203	0.00212
1.00800	0.00261	-0.00001	0.00017	0.00263	0.00203	0.00212
1.01000	0.00261	-0.00001	0.00017	0.00263	0.00203	0.00212
1.01200	0.00261	-0.00001	0.00017	0.00263	0.00203	0.00212
1.01400	0.00261	-0.00001	0.00017	0.00263	0.00203	0.00212
1.01600	0.00261	-0.00001	0.00017	0.00263	0.00203	0.00212
1.01800	0.00261	-0.00001	0.00017	0.00263	0.00203	0.00212
1.02000	0.00261	-0.00001	0.00017	0.00263	0.00203	0.00212
1.02200	0.00261	-0.00001	0.00017	0.00263	0.00203	0.00212
1.02400	0.00261	-0.00001	0.00017	0.00263	0.00203	0.00212
1.02600	0.00261	-0.00001	0.00017	0.00263	0.00203	0.00212
1.02800	0.00240	0.00606	-0.00106	0.00572	0.00121	0.00551
1.03000	0.00240	0.00606	-0.00106	0.00572	0.00121	0.00551
1.03200	0.00240	0.00606	-0.00106	0.00572	0.00121	0.00551
1.03400	0.00240	0.00606	-0.00106	0.00572	0.00121	0.00551
1.03600	0.00240	0.00606	-0.00106	0.00572	0.00121	0.00551
1.03800	0.00240	0.00606	-0.00106	0.00572	0.00121	0.00551
1.04000	0.00240	0.00606	-0.00106	0.00572	0.00121	0.00551
1.04200	0.00240	0.00606	-0.00106	0.00572	0.00121	0.00551
1.04400	0.00240	0.00606	-0.00106	0.00572	0.00121	0.00551
1.04600	0.00240	0.00606	-0.00106	0.00572	0.00121	0.00551
1.04800	0.00240	0.00606	-0.00106	0.00572	0.00121	0.00551
1.05000	0.00240	0.00606	-0.00106	0.00572	0.00121	0.00551
1.05200	0.00240	0.00606	-0.00106	0.00572	0.00121	0.00551
1.05400	0.00240	0.00606	-0.00106	0.00572	0.00121	0.00551
1.05600	0.00240	0.00606	-0.00106	0.00572	0.00121	0.00551
1.05800	0.00240	0.00606	-0.00106	0.00572	0.00121	0.00551
1.06000	0.00240	0.00606	-0.00106	0.00572	0.00121	0.00551
1.06200	0.00240	0.00606	-0.00106	0.00572	0.00121	0.00551
1.06400	0.00240	0.00606	-0.00106	0.00572	0.00121	0.00551
1.06600	0.00240	0.00606	-0.00106	0.00572	0.00121	0.00551
1.06800	0.00240	0.00606	-0.00106	0.00572	0.00121	0.00551
1.07000	0.00240	0.00606	-0.00106	0.00572	0.00121	0.00551
1.07200	0.00240	0.00606	-0.00106	0.00572	0.00121	0.00551
1.07400	0.00240	0.00606	-0.00106	0.00572	0.00121	0.00551
1.07600	0.00240	0.00606	-0.00106	0.00572	0.00121	0.00551
1.07800	0.00240	0.00606	-0.00106	0.00572	0.00121	0.00551
1.08000	0.00240	0.00606	-0.00106	0.00572	0.00121	0.00551
1.08200	0.00240	0.00606	-0.00106	0.00572	0.00121	0.00551
1.08400	0.00384	-0.00247	0.00336	-0.00333	0.00460	0.00047
1.08600	0.00384	-0.00247	0.00336	-0.00333	0.00460	0.00047
1.08800	0.00384	-0.00247	0.00336	-0.00333	0.00460	0.00047
1.09000	0.00384	-0.00247	0.00336	-0.00333	0.00460	0.00047
1.09200	0.00384	-0.00247	0.00336	-0.00333	0.00460	0.00047
1.09400	0.00384	-0.00247	0.00336	-0.00333	0.00460	0.00047
1.09600	0.00384	-0.00247	0.00336	-0.00333	0.00460	0.00047
1.09800	0.00384	-0.00247	0.00336	-0.00333	0.00460	0.00047
1.10000	0.00384	-0.00247	0.00336	-0.00333	0.00460	0.00047
1.10200	0.00384	-0.00247	0.00336	-0.00333	0.00460	0.00047
1.10400	0.00384	-0.00247	0.00336	-0.00333	0.00460	0.00047
1.10600	0.00384	-0.00247	0.00336	-0.00333	0.00460	0.00047
1.10800	0.00384	-0.00247	0.00336	-0.00333	0.00460	0.00047
1.11000	0.00384	-0.00247	0.00336	-0.00333	0.00460	0.00047
1.11200	0.00384	-0.00247	0.00336	-0.00333	0.00460	0.00047
1.11400	0.00384	-0.00247	0.00336	-0.00333	0.00460	0.00047
1.11600	0.00384	-0.00247	0.00336	-0.00333	0.00460	0.00047
1.11800	0.00384	-0.00247	0.00336	-0.00333	0.00460	0.00047
1.12000	0.00384	-0.00247	0.00336	-0.00333	0.00460	0.00047
1.12200	0.00384	-0.00247	0.00336	-0.00333	0.00460	0.00047
1.12400	0.00384	-0.00247	0.00336	-0.00333	0.00460	0.00047
1.12600	0.00384	-0.00247	0.00336	-0.00333	0.00460	0.00047
1.12800	0.00384	-0.00247	0.00336	-0.00333	0.00460	0.00047
1.13000	0.00384	-0.00247	0.00336	-0.00333	0.00460	0.00047
1.13200	0.00384	-0.00247	0.00336	-0.00333	0.00460	0.00047
1.13400	0.00384	-0.00247	0.00336	-0.00333	0.00460	0.00047
1.13600	0.00384	-0.00247	0.00336	-0.00333	0.00460	0.00047
1.13800	0.00384	-0.00247	0.00336	-0.00333	0.00460	0.00047
1.14000	0.00384	-0.00247	0.00336	-0.00333	0.00460	0.00047
1.14200	0.00662	-0.00196	0.00511	-0.00035	0.00501	0.00284
1.14400	0.00662	-0.00196	0.00511	-0.00035	0.00501	0.00284
1.14600	0.00662	-0.00196	0.00511	-0.00035	0.00501	0.00284
1.14800	0.00662	-0.00196	0.00511	-0.00035	0.00501	0.00284
1.15000	0.00662	-0.00196	0.00511	-0.00035	0.00501	0.00284
1.15200	0.00662	-0.00196	0.00511	-0.00035	0.00501	0.00284
1.15400	0.00662	-0.00196	0.00511	-0.00035	0.00501	0.00284
1.15600	0.00662	-0.00196	0.00511	-0.00035	0.00501	0.00284
1.15800	0.00662	-0.00196	0.00511	-0.00035	0.00501	0.00284
1.16000	0.00662	-0.00196	0.00511	-0.00035	0.00501	0.00284
1.16200	0.00662	-0.00196	0.00511	-0.00035	0.00501	0.00284
1.16400	0.00662	-0.00196	0.00511	-0.00035	0.00501	0.00284
1.16600	0.00662	-0.00196	0.00511	-0.00035	0.00501	0.00284
1.16800	0.00662	-0.00196	0.00511	-0.00035	0.00501	0.00284
1.17000	0.00662	-0.00196	0.00511	-0.00035	0.00501	0.00284
1.17200	0.00662	-0.00196	0.00511	-0.00035	0.00501	0.00284
1.17400	0.00662	-0.00196	0.00511	-0.00035	0.00501	0.00284
1.17600	0.00662	-0.00196	0.00511	-0.00035	0.00501	0.00284
1.17800	0.00662	-0.00196	0.00511	-0.00035	0.00501	0.00284
1.18000	0.00662	-0.00196	0.00511	-0.00035	0.00501	0.00284
1.18200	0.00662	-0.00196	0.00511	-0.00035	0.00501	0.00284
1.18400	0.00662	-0.00196	0.00511	-0.00035	0.00501	0.00284
1.18600	0.00662	-0.00196	0.00511	-0.00035	0.00501	0.00284
1.18800	0.00662	-0.00196	0.00511	-0.00035	0.00501	0.00284
1.19000	0.00662	-0.00196	0.00511	-0.00035	0.00501	0.00284
1.19200	0.00662	-0.00196	0.00511	-0.00035	0.00501	0.00284
1.19400	0.00662	-0.00196	0.00511	-0.00035	0.00501	0.00284
1.19600	0.00662	-0.00196	0.00511	-0.00035	0.00501	0.00284
1.19800	-0.00048	0.00864	0.00243	0.00346	0.00378	0.00119
1.20000	-0.00048	0.00864	0.00243	0.00346	0.00378	0.00119
1.20200	-0.00048	0.00864	0.00243	0.00346	0.00378	0.00119
1.20400	-0.00048	0.00864	0.00243	0.00346	0.00378	0.00119
1.20600	-0.00048	0.00864	0.00243	0.00346	0.00378	0.00119
1.20800	-0.00048	0.00864	0.00243	0.00346	0.00378	0.00119
1.21000	-0.00048	0.00864	0.00243	0.00346	0.00378	0.00119
1.21200	-0.00048	0.00864	0.00243	0.00346	0.00378	0.00119
1.21400	-0.00048	0.00864	0.00243	0.00346	0.00378	0.00119
1.21600	-0.00048	0.00864	0.00243	0.00346	0.00378	0.00119
1.21800	-0.00048	0.00864	0.00243	0.00346	0.00378	0.00119
1.22000	-0.00048	0.00864	0.00243	0.00346	0.00378	0.00119
1.22200	-0.00048	0.00864	0.00243	0.00346	0.00378	0.00119
1.22400	-0.00048	0.00864	0.00243	0.00346	0.00378	0.00119
1.22600	-0.00048	0.00864	0.00243	0.00346	0.00378	0.00119
1.22800	-0.00048	0.00864	0.00243	0.00346	0.00378	0.00119
1.23000	-0.00048	0.00864	0.00243	0.00346	0.00378	0.00119
1.23200	-0.00048	0.00864	0.00243	0.00346	0.00378	0.00119
1.23400	-0.00048	0.00864	0.00243	0.00346	0.00378	0.00119
1.23600	-0.00048	0.00864	0.00243	0.00346	0.00378	0.00119
1.23800	-0.00048	0.00864	0.00243	0.00346	0.00378	0.00119
1.24000	-0.00048	0.00864	0.00243	0.00346	0.00378	0.00119
1.24200	-0.00048	0.00864	0.00243	0.00346	0.00378	0.00119
1.24400	-0.00048	0.00864	0.00243	0.00346	0.00378	0.00119
1.24600	-0.00048	0.00864	0.00243	0.00346	0.00378	0.00119
1.24800	-0.00048	0.00864	0.00243	0.00346	0.00378	0.00119
1.25000	-0.00048	0.00864	0.00243	0.00346	0.00378	0.00119
1.25200	-0.00048	0.00864	0.00243	0.00346	0.00378	0.00119
1.25400	-0.00048	0.00864	0.00243	0.00346	0.00378	0.00119
1.25600	-0.00346	0.00740	-0.00374	0.00089	0.00378	-0.00087
1.25800	-0.00346	0.00740	-0.00374	0.00089	0.00378	-0.00087
1.26000	-0.00346	0.00740	-0.00374	0.00089	0.00378	-0.00087
1.26200	-0.00346	0.00740	-0.00374	0.00089	0.00378	-0.00087
1.26400	-0.00346	0.00740	-0.00374	0.00089	0.00378	-0.00087
1.26600	-0.00346	0.00740	-0.00374	0.00089	0.00378	-0.00087
1.26800	-0.00346	0.00740	-0.00374	0.00089	0.00378	-0.00087
1.27000	-0.00346	0.00740	-0.00374	0.00089	0.00378	-0.00087
1.27200	-0.00346	0.00740	-0.00374	0.00089	0.00378	-0.00087
1.27400	-0.00346	0.00740	-0.00374	0.00089	0.00378	-0.00087
1.27600	-0.00346	0.00740	-0.00374	0.00089	0.00378	-0.00087
1.27800	-0.00346	0.00740	-0.00374	0.00089	0.00378	-0.00087
1.28000	-0.00346	0.00740	-0.00374	0.00089	0.00378	-0.00087
1.28200	-0.00346	0.00740	-0.00374	0.00089	0.00378	-0.00087
1.28400	-0.00346	0.00740	-0.00374	0.00089	0.00378	-0.00087
1.28600	-0.00346	0.00740	-0.00374	0.00089	0.00378	-0.00087
1.28800	-0.00346	0.00740	-0.00374	0.00089	0.00378	-0.00087
1.29000	-0.00346	0.00740	-0.00374	0.00089	0.00378	-0.00087
1.29200	-0.00346	0.00740	-0.00374	0.00089	0.00378	-0.00087
1.29400	-0.00346	0.00740	-0.00374	0.00089	0.00378	-0.00087
1.29600	-0.00346	0.00740	-0.00374	0.00089	0.00378	-0.00087
1.29800	-0.00346	0.00740	-0.00374	0.00089	0.00378	-0.00087
1.30000	-0.00346	0.00740	-0.00374	0.00089	0.00378	-0.00087
1.30200	-0.00346	0.00740	-0.00374	0.00089	0.00378	-0.00087
1.30400	-0.00346	0.00740	-0.00374	0.00089	0.00378	-0.00087
1.30600	-0.00346	0.00740	-0.00374	0.00089	0.00378	-0.00087
1.30800	-0.00346	0.00740	-0.00374	0.00089	0.00378	-0.00087
1.31000	-0.00346	0.00740	-0.00374	0.00089	0.00378	-0.00087
1.31200	-0.00346	0.00740	-0.00374	0.00089	0.00378	-0.00087
1.31400	0.00498	0.00143	0.00531	-0.00138	0.00439	0.00387
1.31600	0.00498	0.00143	0.00531	-0.00138	0.00439	0.00387
1.31800	0.00498	0.00143	0.00531	-0.00138	0.00439	0.00387
1.32000	0.00498	0.00143	0.00531	-0.00138	0.00439	0.00387
1.32200	0.00498	0.00143	0.00531	-0.00138	0.00439	0.00387
1.32400	0.00498	0.00143	0.00531	-0.00138	0.00439	0.00387
1.32600	0.00498	0.00143	0.00531	-0.00138	0.00439	0.00387
1.32800	0.00498	0.00143	0.00531	-0.00138	0.00439	0.00387
1.33000	0.00498	0.00143	0.00531	-0.00138	0.00439	0.00387
1.33200	0.00498	0.00143	0.00531	-0.00138	0.00439	0.00387
1.33400	0.00498	0.00143	0.00531	-0.00138	0.00439	0.00387
1.33600	0.00498	0.00143	0.00531	-0.00138	0.00439	0.00387
1.33800	0.00498	0.00143	0.00531	-0.00138	0.00439	0.00387
1.34000	0.00498	0.00143	0.00531	-0.00138	0.00439	0.00387
1.34200	0.00498	0.00143	0.00531	-0.00138	0.00439	0.00387
1.34400	0.00498	0.00143	0.00531	-0.00138	0.00439	0.00387
1.34600	0.00498	0.00143	0.00531	-0.00138	0.00439	0.00387
1.34800	0.00498	0.00143	0.00531	-0.00138	0.00439	0.00387
1.35000	0.00498	0.00143	0.00531	-0.00138	0.00439	0.00387
1.35200	0.00498	0.00143	0.00531	-0.00138	0.00439	0.00387
1.35400	0.00498	0.00143	0.00531	-0.00138	0.00439	0.00387
1.35600	0.00498	0.00143	0.00531	-0.00138	0.00439	0.00387
1.35800	0.00498	0.00143	0.00531	-0.00138	0.00439	0.00387
1.36000	0.00498	0.00143	0.00531	-0.00138	0.00439	0.00387
1.36200	0.00498	0.00143	0.00531	-0.00138	0.00439	0.00387
1.36400	0.00498	0.00143	0.00531	-0.00138	0.00439	0.00387
1.36600	0.00498	0.00143	0.00531	-0.00138	0.00439	0.00387
1.36800	0.00498	0.00143	0.00531	-0.00138	0.00439	0.00387
1.37000	0.00498	0.00143	0.00531	-0.00138	0.00439	0.00387
1.37200	0.00158	0.00205	0.00398	0.00037	0.00491	0.00150
1.37400	0.00158	0.00205	0.00398	0.00037	0.00491	0.00150
1.37600	0.00158	0.00205	0.00398	0.00037	0.00491	0.00150
1.37800	0.00158	0.00205	0.00398	0.00037	0.00491	0.00150
1.38000	0.00158	0.00205	0.00398	0.00037	0.00491	0.00150
1.38200	0.00158	0.00205	0.00398	0.00037	0.00491	0.00150
1.38400	0.00158	0.00205	0.00398	0.00037	0.00491	0.00150
1.38600	0.00158	0.00205	0.00398	0.00037	0.00491	0.00150
1.38800	0.00158	0.00205	0.00398	0.00037	0.00491	0.00150
1.39000	0.00158	0.00205	0.00398	0.00037	0.00491	0.00150
1.39200	0.00158	0.00205	0.00398	0.00037	0.00491	0.00150
1.39400	0.00158	0.00205	0.00398	0.00037	0.00491	0.00150
1.39600	0.00158	0.00205	0.00398	0.00037	0.00491	0.00150
1.39800	0.00158	0.00205	0.00398	0.00037	0.00491	0.00150
1.40000	0.00158	0.00205	0.00398	0.00037	0.00491	0.00150
1.40200	0.00158	0.00205	0.00398	0.00037	0.00491	0.00150
1.40400	0.00158	0.00205	0.00398	0.00037	0.00491	0.00150
1.40600	0.00158	0.00205	0.00398	0.00037	0.00491	0.00150
1.40800	0.00158	0.00205	0.00398	0.00037	0.00491	0.00150
1.41000	0.00158	0.00205	0.00398	0.00037	0.00491	0.00150
1.41200	0.00158	0.00205	0.00398	0.00037	0.00491	0.00150
1.41400	0.00158	0.00205	0.00398	0.00037	0.00491	0.00150
1.41600	0.00158	0.00205	0.00398	0.00037	0.00491	0.00150
1.41800	0.00158	0.00205	0.00398	0.00037	0.00491	0.00150
1.42000	0.00158	0.00205	0.00398	0.00037	0.00491	0.00150
1.42200	0.00158	0.00205	0.00398	0.00037	0.00491	0.00150
1.42400	0.00158	0.00205	0.00398	0.00037	0.00491	0.00150
1.42600	0.00158	0.00205	0.00398	0.00037	0.00491	0.00150
1.42800	0.00158	0.00205	0.00398	0.00037	0.00491	0.00150
1.43000	-0.00408	0.00534	0.00069	-0.00138	0.00594	-0.00416
1.43200	-0.00408	0.00534	0.00069	-0.00138	0.00594	-0.00416
1.43400	-0.00408	0.00534	0.00069	-0.00138	0.00594	-0.00416
1.43600	-0.00408	0.00534	0.00069	-0.00138	0.00594	-0.00416
1.43800	-0.00408	0.00534	0.00069	-0.00138	0.00594	-0.00416
1.44000	-0.00408	0.00534	0.00069	-0.00138	0.00594	-0.00416
1.44200	-0.00408	0.00534	0.00069	-0.00138	0.00594	-0.00416
1.44400	-0.00408	0.00534	0.00069	-0.00138	0.00594	-0.00416
1.44600	-0.00408	0.00534	0.00069	-0.00138	0.00594	-0.00416
1.44800	-0.00408	0.00534	0.00069	-0.00138	0.00594	-0.00416
1.45000	-0.00408	0.00534	0.00069	-0.00138	0.00594	-0.00416
1.45200	-0.00408	0.00534	0.00069	-0.00138	0.00594	-0.00416
1.45400	-0.00408	0.00534	0.00069	-0.00138	0.00594	-0.00416
1.45600	-0.00408	0.00534	0.00069	-0.00138	0.00594	-0.00416
1.45800	-0.00408	0.00534	0.00069	-0.00138	0.00594	-0.00416
1.46000	-0.00408	0.00534	0.00069	-0.00138	0.00594	-0.00416
1.46200	-0.00408	0.00534	0.00069	-0.00138	0.00594	-0.00416
1.46400	-0.00408	0.00534	0.00069	-0.00138	0.00594	-0.00416
1.46600	-0.00408	0.00534	0.00069	-0.00138	0.00594	-0.00416
1.46800	-0.00408	0.00534	0.00069	-0.00138	0.00594	-0.00416
1.47000	-0.00408	0.00534	0.00069	-0.00138	0.00594	-0.00416
1.47200	-0.00408	0.00534	0.00069	-0.00138	0.00594	-0.00416
1.47400	-0.00408	0.00534	0.00069	-0.00138	0.00594	-0.00416
1.47600	-0.00408	0.00534	0.00069	-0.00138	0.00594	-0.00416
1.47800	-0.00408	0.00534	0.00069	-0.00138	0.00594	-0.00416
1.48000	-0.00408	0.00534	0.00069	-0.00138	0.00594	-0.00416
1.48200	-0.00408	0.00534	0.00069	-0.00138	0.00594	-0.00416
1.48400	-0.00408	0.00534	0.00069	-0.00138	0.00594	-0.00416
1.48600	-0.00408	0.00534	0.00069	-0.00138	0.00594	-0.00416
1.48800	0.00312	0.00082	0.00480	-0.00168	0.00552	0.00253
1.49000	0.00312	0.00082	0.00480	-0.00168	0.00552	0.00253
1.49200	0.00312	0.00082	0.00480	-0.00168	0.00552	0.00253
1.49400	0.00312	0.00082	0.00480	-0.00168	0.00552	0.00253
1.49600	0.00312	0.00082	0.00480	-0.00168	0.00552	0.00253
1.49800	0.00312	0.00082	0.00480	-0.00168	0.00552	0.00253
1.50000	0.00312	0.00082	0.00480	-0.00168	0.00552	0.00253
1.50200	0.00312	0.00082	0.00480	-0.00168	0.00552	0.00253
1.50400	0.00312	0.00082	0.00480	-0.00168	0.00552	0.00253
1.50600	0.00312	0.00082	0.00480	-0.00168	0.00552	0.00253
1.50800	0.00312	0.00082	0.00480	-0.00168	0.00552	0.00253
1.51000	0.00312	0.00082	0.00480	-0.00168	0.00552	0.00253
1.51200	0.00312	0.00082	0.00480	-0.00168	0.00552	0.00253
1.51400	0.00312	0.00082	0.00480	-0.00168	0.00552	0.00253
1.51600	0.00312	0.00082	0.00480	-0.00168	0.00552	0.00253
1.51800	0.00312	0.00082	0.00480	-0.00168	0.00552	0.00253
1.52000	0.00312	0.00082	0.00480	-0.00168	0.00552	0.00253
1.52200	0.00312	0.00082	0.00480	-0.00168	0.00552	0.00253
1.52400	0.00312	0.00082	0.00480	-0.00168	0.00552	0.00253
1.52600	0.00312	0.00082	0.00480	-0.00168	0.00552	0.00253
1.52800	0.00312	0.00082	0.00480	-0.00168	0.00552	0.00253
1.53000	0.00312	0.00082	0.00480	-0.00168	0.00552	0.00253
1.53200	0.00312	0.00082	0.00480	-0.00168	0.00552	0.00253
1.53400	0.00312	0.00082	0.00480	-0.00168	0.00552	0.00253
1.53600	0.00312	0.00082	0.00480	-0.00168	0.00552	0.00253
1.53800	0.00312	0.00082	0.00480	-0.00168	0.00552	0.00253
1.54000	0.00312	0.00082	0.00480	-0.00168	0.00552	0.00253
1.54200	0.00312	0.00082	0.00480	-0.00168	0.00552	0.00253
1.54400	0.00312	0.00082	0.00480	-0.00168	0.00552	0.00253
1.54600	0.00395	0.00411	0.00511	0.00099	0.00306	0.00284
1.54800	0.00395	0.00411	0.00511	0.00099	0.00306	0.00284
1.55000	0.00395	0.00411	0.00511	0.00099	0.00306	0.00284
1.55200	0.00395	0.00411	0.00511	0.00099	0.00306	0.00284
1.55400	0.00395	0.00411	0.00511	0.00099	0.00306	0.00284
1.55600	0.00395	0.00411	0.00511	0.00099	0.00306	0.00284
1.55800	0.00395	0.00411	0.00511	0.00099	0.00306	0.00284
1.56000	0.00395	0.00411	0.00511	0.00099	0.00306	0.00284
1.56200	0.00395	0.00411	0.00511	0.00099	0.00306	0.00284
1.56400	0.00395	0.00411	0.00511	0.00099	0.00306	0.00284
1.56600	0.00395	0.00411	0.00511	0.00099	0.00306	0.00284
1.56800	0.00395	0.00411	0.00511	0.00099	0.00306	0.00284
1.57000	0.00395	0.00411	0.00511	0.00099	0.00306	0.00284
1.57200	0.00395	0.00411	0.00511	0.00099	0.00306	0.00284
1.57400	0.00395	0.00411	0.00511	0.00099	0.00306	0.00284
1.57600	0.00395	0.00411	0.00511	0.00099	0.00306	0.00284
1.57800	0.00395	0.00411	0.00511	0.00099	0.00306	0.00284
1.58000	0.00395	0.00411	0.00511	0.00099	0.00306	0.00284
1.58200	0.00395	0.00411	0.00511	0.00099	0.00306	0.00284
1.58400	0.00395	0.00411	0.00511	0.00099	0.00306	0.00284
1.58600	0.00395	0.00411	0.00511	0.00099	0.00306	0.00284
1.58800	0.00395	0.00411	0.00511	0.00099	0.00306	0.00284
1.59000	0.00395	0.00411	0.00511	0.00099	0.00306	0.00284
1.59200	0.00395	0.00411	0.00511	0.00099	0.00306	0.00284
1.59400	0.00395	0.00411	0.00511	0.00099	0.00306	0.00284
1.59600	0.00395	0.00411	0.00511	0.00099	0.00306	0.00284
1.59800	0.00395	0.00411	0.00511	0.00099	0.00306	0.00284
1.60000	0.00395	0.00411	0.00511	0.00099	0.00306	0.00284
1.60200	0.00395	0.00411	0.00511	0.00099	0.00306	0.00284
1.60400	0.00230	0.00185	0.00398	0.00140	0.00182	0.00448
1.60600	0.00230	0.00185	0.00398	0.00140	0.00182	0.00448
1.60800	0.00230	0.00185	0.00398	0.00140	0.00182	0.00448
1.61000	0.00230	0.00185	0.00398	0.00140	0.00182	0.00448
1.61200	0.00230	0.00185	0.00398	0.00140	0.00182	0.00448
1.61400	0.00230	0.00185	0.00398	0.00140	0.00182	0.00448
1.61600	0.00230	0.00185	0.00398	0.00140	0.00182	0.00448
1.61800	0.00230	0.00185	0.00398	0.00140	0.00182	0.00448
1.62000	0.00230	0.00185	0.00398	0.00140	0.00182	0.00448
1.62200	0.00230	0.00185	0.00398	0.00140	0.00182	0.00448
1.62400	0.00230	0.00185	0.00398	0.00140	0.00182	0.00448
1.62600	0.00230	0.00185	0.00398	0.00140	0.00182	0.00448
1.62800	0.00230	0.00185	0.00398	0.00140	0.00182	0.00448
1.63000	0.00230	0.00185	0.00398	0.00140	0.00182	0.00448
1.63200	0.00230	0.00185	0.00398	0.00140	0.00182	0.00448
1.63400	0.00230	0.00185	0.00398	0.00140	0.00182	0.00448
1.63600	0.00230	0.00185	0.00398	0.00140	0.00182	0.00448
1.63800	0.00230	0.00185	0.00398	0.00140	0.00182	0.00448
1.64000	0.00230	0.00185	0.00398	0.00140	0.00182	0.00448
1.64200	0.00230	0.00185	0.00398	0.00140	0.00182	0.00448
1.64400	0.00230	0.00185	0.00398	0.00140	0.00182	0.00448
1.64600	0.00230	0.00185	0.00398	0.00140	0.00182	0.00448
1.64800	0.00230	0.00185	0.00398	0.00140	0.00182	0.00448
1.65000	0.00230	0.00185	0.00398	0.00140	0.00182	0.00448
1.65200	0.00230	0.00185	0.00398	0.00140	0.00182	0.00448
1.65400	0.00230	0.00185	0.00398	0.00140	0.00182	0.00448
1.65600	0.00230	0.00185	0.00398	0.00140	0.00182	0.00448
1.65800	0.00230	0.00185	0.00398	0.00140	0.00182	0.00448
1.66000	0.00230	0.00185	0.00398	0.00140	0.00182	0.00448
1.66200	0.00559	0.00246	0.00171	0.00520	0.00357	0.00376
1.66400	0.00559	0.00246	0.00171	0.00520	0.00357	0.00376
1.66600	0.00559	0.00246	0.00171	0.00520	0.00357	0.00376
1.66800	0.00559	0.00246	0.00171	0.00520	0.00357	0.00376
1.67000	0.00559	0.00246	0.00171	0.00520	0.00357	0.00376
1.67200	0.00559	0.00246	0.00171	0.00520	0.00357	0.00376
1.67400	0.00559	0.00246	0.00171	0.00520	0.00357	0.00376
1.67600	0.00559	0.00246	0.00171	0.00520	0.00357	0.00376
1.67800	0.00559	0.00246	0.00171	0.00520	0.00357	0.00376
1.68000	0.00559	0.00246	0.00171	0.00520	0.00357	0.00376
1.68200	0.00559	0.00246	0.00171	0.00520	0.00357	0.00376
1.68400	0.00559	0.00246	0.00171	0.00520	0.00357	0.00376
1.68600	0.00559	0.00246	0.00171	0.00520	0.00357	0.00376
1.68800	0.00559	0.00246	0.00171	0.00520	0.00357	0.00376
1.69000	0.00559	0.00246	0.00171	0.00520	0.00357	0.00376
1.69200	0.00559	0.00246	0.00171	0.00520	0.00357	0.00376
1.69400	0.00559	0.00246	0.00171	0.00520	0.00357	0.00376
1.69600	0.00559	0.00246	0.00171	0.00520	0.00357	0.00376
1.69800	0.00559	0.00246	0.00171	0.00520	0.00357	0.00376
1.70000	0.00559	0.00246	0.00171	0.00520	0.00357	0.00376
1.70200	0.00559	0.00246	0.00171	0.00520	0.00357	0.00376
1.70400	0.00559	0.00246	0.00171	0.00520	0.00357	0.00376
1.70600	0.00559	0.00246	0.00171	0.00520	0.00357	0.00376
1.70800	0.00559	0.00246	0.00171	0.00520	0.00357	0.00376
1.71000	0.00559	0.00246	0.00171	0.00520	0.00357	0.00376
1.71200	0.00559	0.00246	0.00171	0.00520	0.00357	0.00376
1.71400	0.00559	0.00246	0.00171	0.00520	0.00357	0.00376
1.71600	0.00559	0.00246	0.00171	0.00520	0.00357	0.00376
1.71800	0.00559	0.00246	0.00171	0.00520	0.00357	0.00376
1.72000	0.00590	0.00380	0.00182	0.00058	0.00213	0.00572
1.72200	0.00590	0.00380	0.00182	0.00058	0.00213	0.00572
1.72400	0.00590	0.00380	0.00182	0.00058	0.00213	0.00572
1.72600	0.00590	0.00380	0.00182	0.00058	0.00213	0.00572
1.72800	0.00590	0.00380	0.00182	0.00058	0.00213	0.00572
1.73000	0.00590	0.00380	0.00182	0.00058	0.00213	0.00572
1.73200	0.00590	0.00380	0.00182	0.00058	0.00213	0.00572
1.73400	0.00590	0.00380	0.00182	0.00058	0.00213	0.00572
1.73600	0.00590	0.00380	0.00182	0.00058	0.00213	0.00572
1.73800	0.00590	0.00380	0.00182	0.00058	0.00213	0.00572
1.74000	0.00590	0.00380	0.00182	0.00058	0.00213	0.00572
1.74200	0.00590	0.00380	0.00182	0.00058	0.00213	0.00572
1.74400	0.00590	0.00380	0.00182	0.00058	0.00213	0.00572
1.74600	0.00590	0.00380	0.00182	0.00058	0.00213	0.00572
1.74800	0.00590	0.00380	0.00182	0.00058	0.00213	0.00572
1.75000	0.00590	0.00380	0.00182	0.00058	0.00213	0.00572
1.75200	0.00590	0.00380	0.00182	0.00058	0.00213	0.00572
1.75400	0.00590	0.00380	0.00182	0.00058	0.00213	0.00572
1.75600	0.00590	0.00380	0.00182	0.00058	0.00213	0.00572
1.75800	0.00590	0.00380	0.00182	0.00058	0.00213	0.00572
1.76000	0.00590	0.00380	0.00182	0.00058	0.00213	0.00572
1.76200	0.00590	0.00380	0.00182	0.00058	0.00213	0.00572
1.76400	0.00590	0.00380	0.00182	0.00058	0.00213	0.00572
1.76600	0.00590	0.00380	0.00182	0.00058	0.00213	0.00572
1.76800	0.00590	0.00380	0.00182	0.00058	0.00213	0.00572
1.77000	0.00590	0.00380	0.00182	0.00058	0.00213	0.00572
1.77200	0.00590	0.00380	0.00182	0.00058	0.00213	0.00572
1.77400	0.00590	0.00380	0.00182	0.00058	0.00213	0.00572
1.77600	0.00590	0.00380	0.00182	0.00058	0.00213	0.00572
1.77800	0.00096	0.00257	0.00223	0.00603	0.00429	-0.00004
1.78000	0.00096	0.00257	0.00223	0.00603	0.00429	-0.00004
1.78200	0.00096	0.00257	0.00223	0.00603	0.00429	-0.00004
1.78400	0.00096	0.00257	0.00223	0.00603	0.00429	-0.00004
1.78600	0.00096	0.00257	0.00223	0.00603	0.00429	-0.00004
1.78800	0.00096	0.00257	0.00223	0.00603	0.00429	-0.00004
1.79000	0.00096	0.00257	0.00223	0.00603	0.00429	-0.00004
1.79200	0.00096	0.00257	0.00223	0.00603	0.00429	-0.00004
1.79400	0.00096	0.00257	0.00223	0.00603	0.00429	-0.00004
1.79600	0.00096	0.00257	0.00223	0.00603	0.00429	-0.00004
1.79800	0.00096	0.00257	0.00223	0.00603	0.00429	-0.00004
1.80000	0.00096	0.00257	0.00223	0.00603	0.00429	-0.00004
1.80200	0.00096	0.00257	0.00223	0.00603	0.00429	-0.00004
1.80400	0.00096	0.00257	0.00223	0.00603	0.00429	-0.00004
1.80600	0.00096	0.00257	0.00223	0.00603	0.00429	-0.00004
1.80800	0.00096	0.00257	0.00223	0.00603	0.00429	-0.00004
1.81000	0.00096	0.00257	0.00223	0.00603	0.00429	-0.00004
1.81200	0.00096	0.00257	0.00223	0.00603	0.00429	-0.00004
1.81400	0.00096	0.00257	0.00223	0.00603	0.00429	-0.00004
1.81600	0.00096	0.00257	0.00223	0.00603	0.00429	-0.00004
1.81800	0.00096	0.00257	0.00223	0.00603	0.00429	-0.00004
1.82000	0.00096	0.00257	0.00223	0.00603	0.00429	-0.00004
1.82200	0.00096	0.00257	0.00223	0.00603	0.00429	-0.00004
1.82400	0.00096	0.00257	0.00223	0.00603	0.00429	-0.00004
1.82600	0.00096	0.00257	0.00223	0.00603	0.00429	-0.00004
1.82800	0.00096	0.00257	0.00223	0.00603	0.00429	-0.00004
1.83000	0.00096	0.00257	0.00223	0.00603	0.00429	-0.00004
1.83200	0.00096	0.00257	0.00223	0.00603	0.00429	-0.00004
1.83400	0.00096	0.00257	0.00223	0.00603	0.00429	-0.00004
1.83600	0.00168	0.00236	0.00212	0.00017	0.00409	-0.00138
1.83800	0.00168	0.00236	0.00212	0.00017	0.00409	-0.00138
1.84000	0.00168	0.00236	0.00212	0.00017	0.00409	-0.00138
1.84200	0.00168	0.00236	0.00212	0.00017	0.00409	-0.00138
1.84400	0.00168	0.00236	0.00212	0.00017	0.00409	-0.00138
1.84600	0.00168	0.00236	0.00212	0.00017	0.00409	-0.00138
1.84800	0.00168	0.00236	0.00212	0.00017	0.00409	-0.00138
1.85000	0.00168	0.00236	0.00212	0.00017	0.00409	-0.00138
1.85200	0.00168	0.00236	0.00212	0.00017	0.00409	-0.00138
1.85400	0.00168	0.00236	0.00212	0.00017	0.00409	-0.00138
1.85600	0.00168	0.00236	0.00212	0.00017	0.00409	-0.00138
1.85800	0.00168	0.00236	0.00212	0.00017	0.00409	-0.00138
1.86000	0.00168	0.00236	0.00212	0.00017	0.00409	-0.00138
1.86200	0.00168	0.00236	0.00212	0.00017	0.00409	-0.00138
1.86400	0.00168	0.00236	0.00212	0.00017	0.00409	-0.00138
1.86600	0.00168	0.00236	0.00212	0.00017	0.00409	-0.00138
1.86800	0.00168	0.00236	0.00212	0.00017	0.00409	-0.00138
1.87000	0.00168	0.00236	0.00212	0.00017	0.00409	-0.00138
1.87200	0.00168	0.00236	0.00212	0.00017	0.00409	-0.00138
1.87400	0.00168	0.00236	0.00212	0.00017	0.00409	-0.00138
1.87600	0.00168	0.00236	0.00212	0.00017	0.00409	-0.00138
1.87800	0.00168	0.00236	0.00212	0.00017	0.00409	-0.00138
1.88000	0.00168	0.00236	0.00212	0.00017	0.00409	-0.00138
1.88200	0.00168	0.00236	0.00212	0.00017	0.00409	-0.00138
1.88400	0.00168	0.00236	0.00212	0.00017	0.00409	-0.00138
1.88600	0.00168	0.00236	0.00212	0.00017	0.00409	-0.00138
1.88800	0.00168	0.00236	0.00212	0.00017	0.00409	-0.00138
1.89000	0.00168	0.00236	0.00212	0.00017	0.00409	-0.00138
1.89200	0.00168	0.00236	0.00212	0.00017	0.00409	-0.00138
1.89400	0.00148	0.00071	0.00778	-0.00158	0.00419	-0.00056
1.89600	0.00148	0.00071	0.00778	-0.00158	0.00419	-0.00056
1.89800	0.00148	0.00071	0.00778	-0.00158	0.00419	-0.00056
1.90000	0.00148	0.00071	0.00778	-0.00158	0.00419	-0.00056
1.90200	0.00148	0.00071	0.00778	-0.00158	0.00419	-0.00056
1.90400	0.00148	0.00071	0.00778	-0.00158	0.00419	-0.00056
1.90600	0.00148	0.00071	0.00778	-0.00158	0.00419	-0.00056
1.90800	0.00148	0.00071	0.00778	-0.00158	0.00419	-0.00056
1.91000	0.00148	0.00071	0.00778	-0.00158	0.00419	-0.00056
1.91200	0.00148	0.00071	0.00778	-0.00158	0.00419	-0.00056
1.91400	0.00148	0.00071	0.00778	-0.00158	0.00419	-0.00056
1.91600	0.00148	0.00071	0.00778	-0.00158	0.00419	-0.00056
1.91800	0.00148	0.00071	0.00778	-0.00158	0.00419	-0.00056
1.92000	0.00148	0.00071	0.00778	-0.00158	0.00419	-0.00056
1.92200	0.00148	0.00071	0.00778	-0.00158	0.00419	-0.00056
1.92400	0.00148	0.00071	0.00778	-0.00158	0.00419	-0.00056
1.92600	0.00148	0.00071	0.00778	-0.00158	0.00419	-0.00056
1.92800	0.00148	0.00071	0.00778	-0.00158	0.00419	-0.00056
1.93000	0.00148	0.00071	0.00778	-0.00158	0.00419	-0.00056
1.93200	0.00148	0.00071	0.00778	-0.00158	0.00419	-0.00056
1.93400	0.00148	0.00071	0.00778	-0.00158	0.00419	-0.00056
1.93600	0.00148	0.00071	0.00778	-0.00158	0.00419	-0.00056
1.93800	0.00148	0.00071	0.00778	-0.00158	0.00419	-0.00056
1.94000	0.00148	0.00071	0.00778	-0.00158	0.00419	-0.00056
1.94200	0.00148	0.00071	0.00778	-0.00158	0.00419	-0.00056
1.94400	0.00148	0.00071	0.00778	-0.00158	0.00419	-0.00056
1.94600	0.00148	0.00071	0.00778	-0.00158	0.00419	-0.00056
1.94800	0.00148	0.00071	0.00778	-0.00158	0.00419	-0.00056
1.95000	0.00148	0.00071	0.00778	-0.00158	0.00419	-0.00056
1.95200	0.00096	0.00452	-0.00065	0.00377	0.00151	0.00273
1.95400	0.00096	0.00452	-0.00065	0.00377	0.00151	0.00273
1.95600	0.00096	0.00452	-0.00065	0.00377	0.00151	0.00273
1.95800	0.00096	0.00452	-0.00065	0.00377	0.00151	0.00273
1.96000	0.00096	0.00452	-0.00065	0.00377	0.00151	0.00273
1.96200	0.00096	0.00452	-0.00065	0.00377	0.00151	0.00273
1.96400	0.00096	0.00452	-0.00065	0.00377	0.00151	0.00273
1.96600	0.00096	0.00452	-0.00065	0.00377	0.00151	0.00273
1.96800	0.00096	0.00452	-0.00065	0.00377	0.00151	0.00273
1.97000	0.00096	0.00452	-0.00065	0.00377	0.00151	0.00273
1.97200	0.00096	0.00452	-0.00065	0.00377	0.00151	0.00273
1.97400	0.00096	0.00452	-0.00065	0.00377	0.00151	0.00273
1.97600	0.00096	0.00452	-0.00065	0.00377	0.00151	0.00273
1.97800	0.00096	0.00452	-0.00065	0.00377	0.00151	0.00273
1.98000	0.00096	0.00452	-0.00065	0.00377	0.00151	0.00273
1.98200	0.00096	0.00452	-0.00065	0.00377	0.00151	0.00273
1.98400	0.00096	0.00452	-0.00065	0.00377	0.00151	0.00273
1.98600	0.00096	0.00452	-0.00065	0.00377	0.00151	0.00273
1.98800	0.00096	0.00452	-0.00065	0.00377	0.00151	0.00273
1.99000	0.00096	0.00452	-0.00065	0.00377	0.00151	0.00273
1.99200	0.00096	0.00452	-0.00065	0.00377	0.00151	0.00273
1.99400	0.00096	0.00452	-0.00065	0.00377	0.00151	0.00273
1.99600	0.00096	0.00452	-0.00065	0.00377	0.00151	0.00273
1.99800	0.00096	0.00452	-0.00065	0.00377	0.00151	0.00273
2.00000	0.00096	0.00452	-0.00065	0.00377	0.00151	0.00273
2.00200	0.00096	0.00452	-0.00065	0.00377	0.00151	0.00273
2.00400	0.00096	0.00452	-0.00065	0.00377	0.00151	0.00273
2.00600	0.00096	0.00452	-0.00065	0.00377	0.00151	0.00273
2.00800	0.00096	0.00452	-0.00065	0.00377	0.00151	0.00273
2.01000	0.00271	0.00257	0.00295	0.00500	0.00162	0.00201
2.01200	0.00271	0.00257	0.00295	0.00500	0.00162	0.00201
2.01400	0.00271	0.00257	0.00295	0.00500	0.00162	0.00201
2.01600	0.00271	0.00257	0.00295	0.00500	0.00162	0.00201
2.01800	0.00271	0.00257	0.00295	0.00500	0.00162	0.00201
2.02000	0.00271	0.00257	0.00295	0.00500	0.00162	0.00201
2.02200	0.00271	0.00257	0.00295	0.00500	0.00162	0.00201
2.02400	0.00271	0.00257	0.00295	0.00500	0.00162	0.00201
2.02600	0.00271	0.00257	0.00295	0.00500	0.00162	0.00201
2.02800	0.00271	0.00257	0.00295	0.00500	0.00162	0.00201
2.03000	0.00271	0.00257	0.00295	0.00500	0.00162	0.00201
2.03200	0.00271	0.00257	0.00295	0.00500	0.00162	0.00201
2.03400	0.00271	0.00257	0.00295	0.00500	0.00162	0.00201
2.03600	0.00271	0.00257	0.00295	0.00500	0.00162	0.00201
2.03800	0.00271	0.00257	0.00295	0.00500	0.00162	0.00201
2.04000	0.00271	0.00257	0.00295	0.00500	0.00162	0.00201
2.04200	0.00271	0.00257	0.00295	0.00500	0.00162	0.00201
2.04400	0.00271	0.00257	0.00295	0.00500	0.00162	0.00201
2.04600	0.00271	0.00257	0.00295	0.00500	0.00162	0.00201
2.04800	0.00271	0.00257	0.00295	0.00500	0.00162	0.00201
2.05000	0.00271	0.00257	0.00295	0.00500	0.00162	0.00201
2.05200	0.00271	0.00257	0.00295	0.00500	0.00162	0.00201
2.05400	0.00271	0.00257	0.00295	0.00500	0.00162	0.00201
2.05600	0.00271	0.00257	0.00295	0.00500	0.00162	0.00201
2.05800	0.00271	0.00257	0.00295	0.00500	0.00162	0.00201
2.06000	0.00271	0.00257	0.00295	0.00500	0.00162	0.00201
2.06200	0.00271	0.00257	0.00295	0.00500	0.00162	0.00201
2.06400	0.00271	0.00257	0.00295	0.00500	0.00162	0.00201
2.06600	0.00271	0.00257	0.00295	0.00500	0.00162	0.00201
2.06800	0.00611	0.00339	0.00418	0.00582	-0.00301	0.00654
2.07000	0.00611	0.00339	0.00418	0.00582	-0.00301	0.00654
2.07200	0.00611	0.00339	0.00418	0.00582	-0.00301	0.00654
2.07400	0.00611	0.00339	0.00418	0.00582	-0.00301	0.00654
2.07600	0.00611	0.00339	0.00418	0.00582	-0.00301	0.00654
2.07800	0.00611	0.00339	0.00418	0.00582	-0.00301	0.00654
2.08000	0.00611	0.00339	0.00418	0.00582	-0.00301	0.00654
2.08200	0.00611	0.00339	0.00418	0.00582	-0.00301	0.00654
2.08400	0.00611	0.00339	0.00418	0.00582	-0.00301	0.00654
2.08600	0.00611	0.00339	0.00418	0.00582	-0.00301	0.00654
2.08800	0.00611	0.00339	0.00418	0.00582	-0.00301	0.00654
2.09000	0.00611	0.00339	0.00418	0.00582	-0.00301	0.00654
2.09200	0.00611	0.00339	0.00418	0.00582	-0.00301	0.00654
2.09400	0.00611	0.00339	0.00418	0.00582	-0.00301	0.00654
2.09600	0.00611	0.00339	0.00418	0.00582	-0.00301	0.00654
2.09800	0.00611	0.00339	0.00418	0.00582	-0.00301	0.00654
2.10000	0.00611	0.00339	0.00418	0.00582	-0.00301	0.00654
2.10200	0.00611	0.00339	0.00418	0.00582	-0.00301	0.00654
2.10400	0.00611	0.00339	0.00418	0.00582	-0.00301	0.00654
2.10600	0.00611	0.00339	0.00418	0.00582	-0.00301	0.00654
2.10800	0.00611	0.00339	0.00418	0.00582	-0.00301	0.00654
2.11000	0.00611	0.00339	0.00418	0.00582	-0.00301	0.00654
2.11200	0.00611	0.00339	0.00418	0.00582	-0.00301	0.00654
2.11400	0.00611	0.00339	0.00418	0.00582	-0.00301	0.00654
2.11600	0.00611	0.00339	0.00418	0.00582	-0.00301	0.00654
2.11800	0.00611	0.00339	0.00418	0.00582	-0.00301	0.00654
2.12000	0.00611	0.00339	0.00418	0.00582	-0.00301	0.00654
2.12200	0.00611	0.00339	0.00418	0.00582	-0.00301	0.00654
2.12400	0.00611	0.00339	0.00418	0.00582	-0.00301	0.00654
2.12600	0.00467	0.00061	0.00624	0.00006	0.00182	0.00304
2.12800	0.00467	0.00061	0.00624	0.00006	0.00182	0.00304
2.13000	0.00467	0.00061	0.00624	0.00006	0.00182	0.00304
2.13200	0.00467	0.00061	0.00624	0.00006	0.00182	0.00304
2.13400	0.00467	0.00061	0.00624	0.00006	0.00182	0.00304
2.13600	0.00467	0.00061	0.00624	0.00006	0.00182	0.00304
2.13800	0.00467	0.00061	0.00624	0.00006	0.00182	0.00304
2.14000	0.00467	0.00061	0.00624	0.00006	0.00182	0.00304
2.14200	0.00467	0.00061	0.00624	0.00006	0.00182	0.00304
2.14400	0.00467	0.00061	0.00624	0.00006	0.00182	0.00304
2.14600	0.00467	0.00061	0.00624	0.00006	0.00182	0.00304
2.14800	0.00467	0.00061	0.00624	0.00006	0.00182	0.00304
2.15000	0.00467	0.00061	0.00624	0.00006	0.00182	0.00304
2.15200	0.00467	0.00061	0.00624	0.00006	0.00182	0.00304
2.15400	0.00467	0.00061	0.00624	0.00006	0.00182	0.00304
2.15600	0.00467	0.00061	0.00624	0.00006	0.00182	0.00304
2.15800	0.00467	0.00061	0.00624	0.00006	0.00182	0.00304
2.16000	0.00467	0.00061	0.00624	0.00006	0.00182	0.00304
2.16200	0.00467	0.00061	0.00624	0.00006	0.00182	0.00304
2.16400	0.00467	0.00061	0.00624	0.00006	0.00182	0.00304
2.16600	0.00467	0.00061	0.00624	0.00006	0.00182	0.00304
2.16800	0.00467	0.00061	0.00624	0.00006	0.00182	0.00304
2.17000	0.00467	0.00061	0.00624	0.00006	0.00182	0.00304
2.17200	0.00467	0.00061	0.00624	0.00006	0.00182	0.00304
2.17400	0.00467	0.00061	0.00624	0.00006	0.00182	0.00304
2.17600	0.00467	0.00061	0.00624	0.00006	0.00182	0.00304
2.17800	0.00467	0.00061	0.00624	0.00006	0.00182	0.00304
2.18000	0.00467	0.00061	0.00624	0.00006	0.00182	0.00304
2.18200	0.00467	0.00061	0.00624	0.00006	0.00182	0.00304
2.18400	0.00312	0.00236	0.00613	0.00006	0.00244	0.00315
2.18600	0.00312	0.00236	0.00613	0.00006	0.00244	0.00315
2.18800	0.00312	0.00236	0.00613	0.00006	0.00244	0.00315
2.19000	0.00312	0.00236	0.00613	0.00006	0.00244	0.00315
2.19200	0.00312	0.00236	0.00613	0.00006	0.00244	0.00315
2.19400	0.00312	0.00236	0.00613	0.00006	0.00244	0.00315
2.19600	0.00312	0.00236	0.00613	0.00006	0.00244	0.00315
2.19800	0.00312	0.00236	0.00613	0.00006	0.00244	0.00315
2.20000	0.00312	0.00236	0.00613	0.00006	0.00244	0.00315
2.20200	0.00312	0.00236	0.00613	0.00006	0.00244	0.00315
2.20400	0.00312	0.00236	0.00613	0.00006	0.00244	0.00315
2.20600	0.00312	0.00236	0.00613	0.00006	0.00244	0.00315
2.20800	0.00312	0.00236	0.00613	0.00006	0.00244	0.00315
2.21000	0.00312	0.00236	0.00613	0.00006	0.00244	0.00315
2.21200	0.00312	0.00236	0.00613	0.00006	0.00244	0.00315
2.21400	0.00312	0.00236	0.00613	0.00006	0.00244	0.00315
2.21600	0.00312	0.00236	0.00613	0.00006	0.00244	0.00315
2.21800	0.00312	0.00236	0.00613	0.00006	0.00244	0.00315
2.22000	0.00312	0.00236	0.00613	0.00006	0.00244	0.00315
2.22200	0.00312	0.00236	0.00613	0.00006	0.00244	0.00315
2.22400	0.00312	0.00236	0.00613	0.00006	0.00244	0.00315
2.22600	0.00312	0.00236	0.00613	0.00006	0.00244	0.00315
2.22800	0.00312	0.00236	0.00613	0.00006	0.00244	0.00315
2.23000	0.00312	0.00236	0.00613	0.00006	0.00244	0.00315
2.23200	0.00312	0.00236	0.00613	0.00006	0.00244	0.00315
2.23400	0.00312	0.00236	0.00613	0.00006	0.00244	0.00315
2.23600	0.00312	0.00236	0.00613	0.00006	0.00244	0.00315
2.23800	0.00312	0.00236	0.00613	0.00006	0.00244	0.00315
2.24000	0.00312	0.00236	0.00613	0.00006	0.00244	0.00315
2.24200	-0.00233	0.00504	-0.00075	0.00459	0.00306	-0.00210
2.24400	-0.00233	0.00504	-0.00075	0.00459	0.00306	-0.00210
2.24600	-0.00233	0.00504	-0.00075	0.00459	0.00306	-0.00210
2.24800	-0.00233	0.00504	-0.00075	0.00459	0.00306	-0.00210
2.25000	-0.00233	0.00504	-0.00075	0.00459	0.00306	-0.00210
2.25200	-0.00233	0.00504	-0.00075	0.00459	0.00306	-0.00210
2.25400	-0.00233	0.00504	-0.00075	0.00459	0.00306	-0.00210
2.25600	-0.00233	0.00504	-0.00075	0.00459	0.00306	-0.00210
2.25800	-0.00233	0.00504	-0.00075	0.00459	0.00306	-0.00210
2.26000	-0.00233	0.00504	-0.00075	0.00459	0.00306	-0.00210
2.26200	-0.00233	0.00504	-0.00075	0.00459	0.00306	-0.00210
2.26400	-0.00233	0.00504	-0.00075	0.00459	0.00306	-0.00210
2.26600	-0.00233	0.00504	-0.00075	0.00459	0.00306	-0.00210
2.26800	-0.00233	0.00504	-0.00075	0.00459	0.00306	-0.00210
2.27000	-0.00233	0.00504	-0.00075	0.00459	0.00306	-0.00210
2.27200	-0.00233	0.00504	-0.00075	0.00459	0.00306	-0.00210
2.27400	-0.00233	0.00504	-0.00075	0.00459	0.00306	-0.00210
2.27600	-0.00233	0.00504	-0.00075	0.00459	0.00306	-0.00210
2.27800	-0.00233	0.00504	-0.00075	0.00459	0.00306	-0.00210
2.28000	-0.00233	0.00504	-0.00075	0.00459	0.00306	-0.00210
2.28200	-0.00233	0.00504	-0.00075	0.00459	0.00306	-0.00210
2.28400	-0.00233	0.00504	-0.00075	0.00459	0.00306	-0.00210
2.28600	-0.00233	0.00504	-0.00075	0.00459	0.00306	-0.00210
2.28800	-0.00233	0.00504	-0.00075	0.00459	0.00306	-0.00210
2.29000	-0.00233	0.00504	-0.00075	0.00459	0.00306	-0.00210
2.29200	-0.00233	0.00504	-0.00075	0.00459	0.00306	-0.00210
2.29400	-0.00233	0.00504	-0.00075	0.00459	0.00306	-0.00210
2.29600	-0.00233	0.00504	-0.00075	0.00459	0.00306	-0.00210
2.29800	-0.00233	0.00504	-0.00075	0.00459	0.00306	-0.00210
2.30000	0.00148	-0.00247	0.00541	-0.00055	0.00552	0.00191
2.30200	0.00148	-0.00247	0.00541	-0.00055	0.00552	0.00191
2.30400	0.00148	-0.00247	0.00541	-0.00055	0.00552	0.00191
2.30600	0.00148	-0.00247	0.00541	-0.00055	0.00552	0.00191
2.30800	0.00148	-0.00247	0.00541	-0.00055	0.00552	0.00191
2.31000	0.00148	-0.00247	0.00541	-0.00055	0.00552	0.00191
2.31200	0.00148	-0.00247	0.00541	-0.00055	0.00552	0.00191
2.31400	0.00148	-0.00247	0.00541	-0.00055	0.00552	0.00191
2.31600	0.00148	-0.00247	0.00541	-0.00055	0.00552	0.00191
2.31800	0.00148	-0.00247	0.00541	-0.00055	0.00552	0.00191
2.32000	0.00148	-0.00247	0.00541	-0.00055	0.00552	0.00191
2.32200	0.00148	-0.00247	0.00541	-0.00055	0.00552	0.00191
2.32400	0.00148	-0.00247	0.00541	-0.00055	0.00552	0.00191
2.32600	0.00148	-0.00247	0.00541	-0.00055	0.00552	0.00191
2.32800	0.00148	-0.00247	0.00541	-0.00055	0.00552	0.00191
2.33000	0.00148	-0.00247	0.00541	-0.00055	0.00552	0.00191
2.33200	0.00148	-0.00247	0.00541	-0.00055	0.00552	0.00191
2.33400	0.00148	-0.00247	0.00541	-0.00055	0.00552	0.00191
2.33600	0.00148	-0.00247	0.00541	-0.00055	0.00552	0.00191
2.33800	0.00148	-0.00247	0.00541	-0.00055	0.00552	0.00191
2.34000	0.00148	-0.00247	0.00541	-0.00055	0.00552	0.00191
2.34200	0.00148	-0.00247	0.00541	-0.00055	0.00552	0.00191
2.34400	0.00148	-0.00247	0.00541	-0.00055	0.00552	0.00191
2.34600	0.00148	-0.00247	0.00541	-0.00055	0.00552	0.00191
2.34800	0.00148	-0.00247	0.00541	-0.00055	0.00552	0.00191
2.35000	0.00148	-0.00247	0.00541	-0.00055	0.00552	0.00191
2.35200	0.00148	-0.00247	0.00541	-0.00055	0.00552	0.00191
2.35400	0.00148	-0.00247	0.00541	-0.00055	0.00552	0.00191
2.35600	0.00487	0.00699	0.00202	0.00191	0.00193	0.00325
2.35800	0.00487	0.00699	0.00202	0.00191	0.00193	0.00325
2.36000	0.00487	0.00699	0.00202	0.00191	0.00193	0.00325
2.36200	0.00487	0.00699	0.00202	0.00191	0.00193	0.00325
2.36400	0.00487	0.00699	0.00202	0.00191	0.00193	0.00325
2.36600	0.00487	0.00699	0.00202	0.00191	0.00193	0.00325
2.36800	0.00487	0.00699	0.00202	0.00191	0.00193	0.00325
2.37000	0.00487	0.00699	0.00202	0.00191	0.00193	0.00325
2.37200	0.00487	0.00699	0.00202	0.00191	0.00193	0.00325
2.37400	0.00487	0.00699	0.00202	0.00191	0.00193	0.00325
2.37600	0.00487	0.00699	0.00202	0.00191	0.00193	0.00325
2.37800	0.00487	0.00699	0.00202	0.00191	0.00193	0.00325
2.38000	0.00487	0.00699	0.00202	0.00191	0.00193	0.00325
2.38200	0.00487	0.00699	0.00202	0.00191	0.00193	0.00325
2.38400	0.00487	0.00699	0.00202	0.00191	0.00193	0.00325
2.38600	0.00487	0.00699	0.00202	0.00191	0.00193	0.00325
2.38800	0.00487	0.00699	0.00202	0.00191	0.00193	0.00325
2.39000	0.00487	0.00699	0.00202	0.00191	0.00193	0.00325
2.39200	0.00487	0.00699	0.00202	0.00191	0.00193	0.00325
2.39400	0.00487	0.00699	0.00202	0.00191	0.00193	0.00325
2.39600	0.00487	0.00699	0.00202	0.00191	0.00193	0.00325
2.39800	0.00487	0.00699	0.00202	0.00191	0.00193	0.00325
2.40000	0.00487	0.00699	0.00202	0.00191	0.00193	0.00325
2.40200	0.00487	0.00699	0.00202	0.00191	0.00193	0.00325
2.40400	0.00487	0.00699	0.00202	0.00191	0.00193	0.00325
2.40600	0.00487	0.00699	0.00202	0.00191	0.00193	0.00325
2.40800	0.00487	0.00699	0.00202	0.00191	0.00193	0.00325
2.41000	0.00487	0.00699	0.00202	0.00191	0.00193	0.00325
2.41200	0.00487	0.00699	0.00202	0.00191	0.00193	0.00325
2.41400	0.00384	0.00432	-0.00003	0.00778	0.00213	0.00171
2.41600	0.00384	0.00432	-0.00003	0.00778	0.00213	0.00171
2.41800	0.00384	0.00432	-0.00003	0.00778	0.00213	0.00171
2.42000	0.00384	0.00432	-0.00003	0.00778	0.00213	0.00171
2.42200	0.00384	0.00432	-0.00003	0.00778	0.00213	0.00171
2.42400	0.00384	0.00432	-0.00003	0.00778	0.00213	0.00171
2.42600	0.00384	0.00432	-0.00003	0.00778	0.00213	0.00171
2.42800	0.00384	0.00432	-0.00003	0.00778	0.00213	0.00171
2.43000	0.00384	0.00432	-0.00003	0.00778	0.00213	0.00171
2.43200	0.00384	0.00432	-0.00003	0.00778	0.00213	0.00171
2.43400	0.00384	0.00432	-0.00003	0.00778	0.00213	0.00171
2.43600	0.00384	0.00432	-0.00003	0.00778	0.00213	0.00171
2.43800	0.00384	0.00432	-0.00003	0.00778	0.00213	0.00171
2.44000	0.00384	0.00432	-0.00003	0.00778	0.00213	0.00171
2.44200	0.00384	0.00432	-0.00003	0.00778	0.00213	0.00171
2.44400	0.00384	0.00432	-0.00003	0.00778	0.00213	0.00171
2.44600	0.00384	0.00432	-0.00003	0.00778	0.00213	0.00171
2.44800	0.00384	0.00432	-0.00003	0.00778	0.00213	0.00171
2.45000	0.00384	0.00432	-0.00003	0.00778	0.00213	0.00171
2.45200	0.00384	0.00432	-0.00003	0.00778	0.00213	0.00171
2.45400	0.00384	0.00432	-0.00003	0.00778	0.00213	0.00171
2.45600	0.00384	0.00432	-0.00003	0.00778	0.00213	0.00171
2.45800	0.00384	0.00432	-0.00003	0.00778	0.00213	0.00171
2.46000	0.00384	0.00432	-0.00003	0.00778	0.00213	0.00171
2.46200	0.00384	0.00432	-0.00003	0.00778	0.00213	0.00171
2.46400	0.00384	0.00432	-0.00003	0.00778	0.00213	0.00171
2.46600	0.00384	0.00432	-0.00003	0.00778	0.00213	0.00171
2.46800	0.00384	0.00432	-0.00003	0.00778	0.00213	0.00171
2.47000	0.00384	0.00432	-0.00003	0.00778	0.00213	0.00171
2.47200	0.00282	0.00010	0.00346	-0.00189	0.00614	0.00150
2.47400	0.00282	0.00010	0.00346	-0.00189	0.00614	0.00150
2.47600	0.00282	0.00010	0.00346	-0.00189	0.00614	0.00150
2.47800	0.00282	0.00010	0.00346	-0.00189	0.00614	0.00150
2.48000	0.00282	0.00010	0.00346	-0.00189	0.00614	0.00150
2.48200	0.00282	0.00010	0.00346	-0.00189	0.00614	0.00150
2.48400	0.00282	0.00010	0.00346	-0.00189	0.00614	0.00150
2.48600	0.00282	0.00010	0.00346	-0.00189	0.00614	0.00150
2.48800	0.00282	0.00010	0.00346	-0.00189	0.00614	0.00150
2.49000	0.00282	0.00010	0.00346	-0.00189	0.00614	0.00150
2.49200	0.00282	0.00010	0.00346	-0.00189	0.00614	0.00150
2.49400	0.00282	0.00010	0.00346	-0.00189	0.00614	0.00150
2.49600	0.00282	0.00010	0.00346	-0.00189	0.00614	0.00150
2.49800	0.00282	0.00010	0.00346	-0.00189	0.00614	0.00150
2.50000	0.00282	0.00010	0.00346	-0.00189	0.00614	0.00150
2.50200	0.00282	0.00010	0.00346	-0.00189	0.00614	0.00150
2.50400	0.00282	0.00010	0.00346	-0.00189	0.00614	0.00150
2.50600	0.00282	0.00010	0.00346	-0.00189	0.00614	0.00150
2.50800	0.00282	0.00010	0.00346	-0.00189	0.00614	0.00150
2.51000	0.00282	0.00010	0.00346	-0.00189	0.00614	0.00150
2.51200	0.00282	0.00010	0.00346	-0.00189	0.00614	0.00150
2.51400	0.00282	0.00010	0.00346	-0.00189	0.00614	0.00150
2.51600	0.00282	0.00010	0.00346	-0.00189	0.00614	0.00150
2.51800	0.00282	0.00010	0.00346	-0.00189	0.00614	0.00150
2.52000	0.00282	0.00010	0.00346	-0.00189	0.00614	0.00150
2.52200	0.00282	0.00010	0.00346	-0.00189	0.00614	0.00150
2.52400	0.00282	0.00010	0.00346	-0.00189	0.00614	0.00150
2.52600	0.00282	0.00010	0.00346	-0.00189	0.00614	0.00150
2.52800	0.00600	0.00185	0.00141	0.00263	0.00357	0.00212
2.53000	0.00600	0.00185	0.00141	0.00263	0.00357	0.00212
2.53200	0.00600	0.00185	0.00141	0.00263	0.00357	0.00212
2.53400	0.00600	0.00185	0.00141	0.00263	0.00357	0.00212
2.53600	0.00600	0.00185	0.00141	0.00263	0.00357	0.00212
2.53800	0.00600	0.00185	0.00141	0.00263	0.00357	0.00212
2.54000	0.00600	0.00185	0.00141	0.00263	0.00357	0.00212
2.54200	0.00600	0.00185	0.00141	0.00263	0.00357	0.00212
2.54400	0.00600	0.00185	0.00141	0.00263	0.00357	0.00212
2.54600	0.00600	0.00185	0.00141	0.00263	0.00357	0.00212
2.54800	0.00600	0.00185	0.00141	0.00263	0.00357	0.00212
2.55000	0.00600	0.00185	0.00141	0.00263	0.00357	0.00212
2.55200	0.00600	0.00185	0.00141	0.00263	0.00357	0.00212
2.55400	0.00600	0.00185	0.00141	0.00263	0.00357	0.00212
2.55600	0.00600	0.00185	0.00141	0.00263	0.00357	0.00212
2.55800	0.00600	0.00185	0.00141	0.00263	0.00357	0.00212
2.56000	0.00600	0.00185	0.00141	0.00263	0.00357	0.00212
2.56200	0.00600	0.00185	0.00141	0.00263	0.00357	0.00212
2.56400	0.00600	0.00185	0.00141	0.00263	0.00357	0.00212
2.56600	0.00600	0.00185	0.00141	0.00263	0.00357	0.00212
2.56800	0.00600	0.00185	0.00141	0.00263	0.00357	0.00212
2.57000	0.00600	0.00185	0.00141	0.00263	0.00357	0.00212
2.57200	0.00600	0.00185	0.00141	0.00263	0.00357	0.00212
2.57400	0.00600	0.00185	0.00141	0.00263	0.00357	0.00212
2.57600	0.00600	0.00185	0.00141	0.00263	0.00357	0.00212
2.57800	0.00600	0.00185	0.00141	0.00263	0.00357	0.00212
2.58000	0.00600	0.00185	0.00141	0.00263	0.00357	0.00212
2.58200	0.00600	0.00185	0.00141	0.00263	0.00357	0.00212
2.58400	0.00600	0.00185	0.00141	0.00263	0.00357	0.00212
2.58600	0.00446	0.00051	0.00572	-0.00025	0.00779	-0.00107
2.58800	0.00446	0.00051	0.00572	-0.00025	0.00779	-0.00107
2.59000	0.00446	0.00051	0.00572	-0.00025	0.00779	-0.00107
2.59200	0.00446	0.00051	0.00572	-0.00025	0.00779	-0.00107
2.59400	0.00446	0.00051	0.00572	-0.00025	0.00779	-0.00107
2.59600	0.00446	0.00051	0.00572	-0.00025	0.00779	-0.00107
2.59800	0.00446	0.00051	0.00572	-0.00025	0.00779	-0.00107
2.60000	0.00446	0.00051	0.00572	-0.00025	0.00779	-0.00107
2.60200	0.00446	0.00051	0.00572	-0.00025	0.00779	-0.00107
2.60400	0.00446	0.00051	0.00572	-0.00025	0.00779	-0.00107
2.60600	0.00446	0.00051	0.00572	-0.00025	0.00779	-0.00107
2.60800	0.00446	0.00051	0.00572	-0.00025	0.00779	-0.00107
2.61000	0.00446	0.00051	0.00572	-0.00025	0.00779	-0.00107
2.61200	0.00446	0.00051	0.00572	-0.00025	0.00779	-0.00107
2.61400	0.00446	0.00051	0.00572	-0.00025	0.00779	-0.00107
2.61600	0.00446	0.00051	0.00572	-0.00025	0.00779	-0.00107
2.61800	0.00446	0.00051	0.00572	-0.00025	0.00779	-0.00107
2.62000	0.00446	0.00051	0.00572	-0.00025	0.00779	-0.00107
2.62200	0.00446	0.00051	0.00572	-0.00025	0.00779	-0.00107
2.62400	0.00446	0.00051	0.00572	-0.00025	0.00779	-0.00107
2.62600	0.00446	0.00051	0.00572	-0.00025	0.00779	-0.00107
2.62800	0.00446	0.00051	0.00572	-0.00025	0.00779	-0.00107
2.63000	0.00446	0.00051	0.00572	-0.00025	0.00779	-0.00107
2.63200	0.00446	0.00051	0.00572	-0.00025	0.00779	-0.00107
2.63400	0.00446	0.00051	0.00572	-0.00025	0.00779	-0.00107
2.63600	0.00446	0.00051	0.00572	-0.00025	0.00779	-0.00107
2.63800	0.00446	0.00051	0.00572	-0.00025	0.00779	-0.00107
2.64000	0.00446	0.00051	0.00572	-0.00025	0.00779	-0.00107
2.64200	0.00446	0.00051	0.00572	-0.00025	0.00779	-0.00107
2.64400	-0.00140	0.00565	-0.00086	0.00654	0.00306	-0.00076
2.64600	-0.00140	0.00565	-0.00086	0.00654	0.00306	-0.00076
2.64800	-0.00140	0.00565	-0.00086	0.00654	0.00306	-0.00076
2.65000	-0.00140	0.00565	-0.00086	0.00654	0.00306	-0.00076
2.65200	-0.00140	0.00565	-0.00086	0.00654	0.00306	-0.00076
2.65400	-0.00140	0.00565	-0.00086	0.00654	0.00306	-0.00076
2.65600	-0.00140	0.00565	-0.00086	0.00654	0.00306	-0.00076
2.65800	-0.00140	0.00565	-0.00086	0.00654	0.00306	-0.00076
2.66000	-0.00140	0.00565	-0.00086	0.00654	0.00306	-0.00076
2.66200	-0.00140	0.00565	-0.00086	0.00654	0.00306	-0.00076
2.66400	-0.00140	0.00565	-0.00086	0.00654	0.00306	-0.00076
2.66600	-0.00140	0.00565	-0.00086	0.00654	0.00306	-0.00076
2.66800	-0.00140	0.00565	-0.00086	0.00654	0.00306	-0.00076
2.67000	-0.00140	0.00565	-0.00086	0.00654	0.00306	-0.00076
2.67200	-0.00140	0.00565	-0.00086	0.00654	0.00306	-0.00076
2.67400	-0.00140	0.00565	-0.00086	0.00654	0.00306	-0.00076
2.67600	-0.00140	0.00565	-0.00086	0.00654	0.00306	-0.00076
2.67800	-0.00140	0.00565	-0.00086	0.00654	0.00306	-0.00076
2.68000	-0.00140	0.00565	-0.00086	0.00654	0.00306	-0.00076
2.68200	-0.00140	0.00565	-0.00086	0.00654	0.00306	-0.00076
2.68400	-0.00140	0.00565	-0.00086	0.00654	0.00306	-0.00076
2.68600	-0.00140	0.00565	-0.00086	0.00654	0.00306	-0.00076
2.68800	-0.00140	0.00565	-0.00086	0.00654	0.00306	-0.00076
2.69000	-0.00140	0.00565	-0.00086	0.00654	0.00306	-0.00076
2.69200	-0.00140	0.00565	-0.00086	0.00654	0.00306	-0.00076
2.69400	-0.00140	0.00565	-0.00086	0.00654	0.00306	-0.00076
2.69600	-0.00140	0.00565	-0.00086	0.00654	0.00306	-0.00076
2.69800	-0.00140	0.00565	-0.00086	0.00654	0.00306	-0.00076
2.70000	-0.00140	0.00565	-0.00086	0.00654	0.00306	-0.00076
2.70200	0.00148	0.00514	-0.00024	0.00736	0.00316	0.00345
2.70400	0.00148	0.00514	-0.00024	0.00736	0.00316	0.00345
2.70600	0.00148	0.00514	-0.00024	0.00736	0.00316	0.00345
2.70800	0.00148	0.00514	-0.00024	0.00736	0.00316	0.00345
2.71000	0.00148	0.00514	-0.00024	0.00736	0.00316	0.00345
2.71200	0.00148	0.00514	-0.00024	0.00736	0.00316	0.00345
2.71400	0.00148	0.00514	-0.00024	0.00736	0.00316	0.00345
2.71600	0.00148	0.00514	-0.00024	0.00736	0.00316	0.00345
2.71800	0.00148	0.00514	-0.00024	0.00736	0.00316	0.00345
2.72000	0.00148	0.00514	-0.00024	0.00736	0.00316	0.00345
2.72200	0.00148	0.00514	-0.00024	0.00736	0.00316	0.00345
2.72400	0.00148	0.00514	-0.00024	0.00736	0.00316	0.00345
2.72600	0.00148	0.00514	-0.00024	0.00736	0.00316	0.00345
2.72800	0.00148	0.00514	-0.00024	0.00736	0.00316	0.00345
2.73000	0.00148	0.00514	-0.00024	0.00736	0.00316	0.00345
2.73200	0.00148	0.00514	-0.00024	0.00736	0.00316	0.00345
2.73400	0.00148	0.00514	-0.00024	0.00736	0.00316	0.00345
2.73600	0.00148	0.00514	-0.00024	0.00736	0.00316	0.00345
2.73800	0.00148	0.00514	-0.00024	0.00736	0.00316	0.00345
2.74000	0.00148	0.00514	-0.00024	0.00736	0.00316	0.00345
2.74200	0.00148	0.00514	-0.00024	0.00736	0.00316	0.00345
2.74400	0.00148	0.00514	-0.00024	0.00736	0.00316	0.00345
2.74600	0.00148	0.00514	-0.00024	0.00736	0.00316	0.00345
2.74800	0.00148	0.00514	-0.00024	0.00736	0.00316	0.00345
2.75000	0.00148	0.00514	-0.00024	0.00736	0.00316	0.00345
2.75200	0.00148	0.00514	-0.00024	0.00736	0.00316	0.00345
2.75400	0.00148	0.00514	-0.00024	0.00736	0.00316	0.00345
2.75600	0.00148	0.00514	-0.00024	0.00736	0.00316	0.00345
2.75800	0.00148	0.00514	-0.00024	0.00736	0.00316	0.00345
2.76000	0.00487	0.00164	0.00264	0.00397	0.00018	0.00510
2.76200	0.00487	0.00164	0.00264	0.00397	0.00018	0.00510
2.76400	0.00487	0.00164	0.00264	0.00397	0.00018	0.00510
2.76600	0.00487	0.00164	0.00264	0.00397	0.00018	0.00510
2.76800	0.00487	0.00164	0.00264	0.00397	0.00018	0.00510
2.77000	0.00487	0.00164	0.00264	0.00397	0.00018	0.00510
2.77200	0.00487	0.00164	0.00264	0.00397	0.00018	0.00510
2.77400	0.00487	0.00164	0.00264	0.00397	0.00018	0.00510
2.77600	0.00487	0.00164	0.00264	0.00397	0.00018	0.00510
2.77800	0.00487	0.00164	0.00264	0.00397	0.00018	0.00510
2.78000	0.00487	0.00164	0.00264	0.00397	0.00018	0.00510
2.78200	0.00487	0.00164	0.00264	0.00397	0.00018	0.00510
2.78400	0.00487	0.00164	0.00264	0.00397	0.00018	0.00510
2.78600	0.00487	0.00164	0.00264	0.00397	0.00018	0.00510
2.78800	0.00487	0.00164	0.00264	0.00397	0.00018	0.00510
2.79000	0.00487	0.00164	0.00264	0.00397	0.00018	0.00510
2.79200	0.00487	0.00164	0.00264	0.00397	0.00018	0.00510
2.79400	0.00487	0.00164	0.00264	0.00397	0.00018	0.00510
2.79600	0.00487	0.00164	0.00264	0.00397	0.00018	0.00510
2.79800	0.00487	0.00164	0.00264	0.00397	0.00018	0.00510
2.80000	0.00487	0.00164	0.00264	0.00397	0.00018	0.00510
2.80200	0.00487	0.00164	0.00264	0.00397	0.00018	0.00510
2.80400	0.00487	0.00164	0.00264	0.00397	0.00018	0.00510
2.80600	0.00487	0.00164	0.00264	0.00397	0.00018	0.00510
2.80800	0.00487	0.00164	0.00264	0.00397	0.00018	0.00510
2.81000	0.00487	0.00164	0.00264	0.00397	0.00018	0.00510
2.81200	0.00487	0.00164	0.00264	0.00397	0.00018	0.00510
2.81400	0.00487	0.00164	0.00264	0.00397	0.00018	0.00510
2.81600	0.00580	0.00287	-0.00096	0.00366	-0.00178	0.00726
2.81800	0.00580	0.00287	-0.00096	0.00366	-0.00178	0.00726
2.82000	0.00580	0.00287	-0.00096	0.00366	-0.00178	0.00726
2.82200	0.00580	0.00287	-0.00096	0.00366	-0.00178	0.00726
2.82400	0.00580	0.00287	-0.00096	0.00366	-0.00178	0.00726
2.82600	0.00580	0.00287	-0.00096	0.00366	-0.00178	0.00726
2.82800	0.00580	0.00287	-0.00096	0.00366	-0.00178	0.00726
2.83000	0.00580	0.00287	-0.00096	0.00366	-0.00178	0.00726
2.83200	0.00580	0.00287	-0.00096	0.00366	-0.00178	0.00726
2.83400	0.00580	0.00287	-0.00096	0.00366	-0.00178	0.00726
2.83600	0.00580	0.00287	-0.00096	0.00366	-0.00178	0.00726
2.83800	0.00580	0.00287	-0.00096	0.00366	-0.00178	0.00726
2.84000	0.00580	0.00287	-0.00096	0.00366	-0.00178	0.00726
2.84200	0.00580	0.00287	-0.00096	0.00366	-0.00178	0.00726
2.84400	0.00580	0.00287	-0.00096	0.00366	-0.00178	0.00726
2.84600	0.00580	0.00287	-0.00096	0.00366	-0.00178	0.00726
2.84800	0.00580	0.00287	-0.00096	0.00366	-0.00178	0.00726
2.85000	0.00580	0.00287	-0.00096	0.00366	-0.00178	0.00726
2.85200	0.00580	0.00287	-0.00096	0.00366	-0.00178	0.00726
2.85400	0.00580	0.00287	-0.00096	0.00366	-0.00178	0.00726
2.85600	0.00580	0.00287	-0.00096	0.00366	-0.00178	0.00726
2.85800	0.00580	0.00287	-0.00096	0.00366	-0.00178	0.00726
2.86000	0.00580	0.00287	-0.00096	0.00366	-0.00178	0.00726
2.86200	0.00580	0.00287	-0.00096	0.00366	-0.00178	0.00726
2.86400	0.00580	0.00287	-0.00096	0.00366	-0.00178	0.00726
2.86600	0.00580	0.00287	-0.00096	0.00366	-0.00178	0.00726
2.86800	0.00580	0.00287	-0.00096	0.00366	-0.00178	0.00726
2.87000	0.00580	0.00287	-0.00096	0.00366	-0.00178	0.00726
2.87200	0.00580	0.00287	-0.00096	0.00366	-0.00178	0.00726
2.87400	0.00045	-0.00031	0.00264	0.00233	0.00285	-0.00004
2.87600	0.00045	-0.00031	0.00264	0.00233	0.00285	-0.00004
2.87800	0.00045	-0.00031	0.00264	0.00233	0.00285	-0.00004
2.88000	0.00045	-0.00031	0.00264	0.00233	0.00285	-0.00004
2.88200	0.00045	-0.00031	0.00264	0.00233	0.00285	-0.00004
2.88400	0.00045	-0.00031	0.00264	0.00233	0.00285	-0.00004
2.88600	0.00045	-0.00031	0.00264	0.00233	0.00285	-0.00004
2.88800	0.00045	-0.00031	0.00264	0.00233	0.00285	-0.00004
2.89000	0.00045	-0.00031	0.00264	0.00233	0.00285	-0.00004
2.89200	0.00045	-0.00031	0.00264	0.00233	0.00285	-0.00004
2.89400	0.00045	-0.00031	0.00264	0.00233	0.00285	-0.00004
2.89600	0.00045	-0.00031	0.00264	0.00233	0.00285	-0.00004
2.89800	0.00045	-0.00031	0.00264	0.00233	0.00285	-0.00004
2.90000	0.00045	-0.00031	0.00264	0.00233	0.00285	-0.00004
2.90200	0.00045	-0.00031	0.00264	0.00233	0.00285	-0.00004
2.90400	0.00045	-0.00031	0.00264	0.00233	0.00285	-0.00004
2.90600	0.00045	-0.00031	0.00264	0.00233	0.00285	-0.00004
2.90800	0.00045	-0.00031	0.00264	0.00233	0.00285	-0.00004
2.91000	0.00045	-0.00031	0.00264	0.00233	0.00285	-0.00004
2.91200	0.00045	-0.00031	0.00264	0.00233	0.00285	-0.00004
2.91400	0.00045	-0.00031	0.00264	0.00233	0.00285	-0.00004
2.91600	0.00045	-0.00031	0.00264	0.00233	0.00285	-0.00004
2.91800	0.00045	-0.00031	0.00264	0.00233	0.00285	-0.00004
2.92000	0.00045	-0.00031	0.00264	0.00233	0.00285	-0.00004
2.92200	0.00045	-0.00031	0.00264	0.00233	0.00285	-0.00004
2.92400	0.00045	-0.00031	0.00264	0.00233	0.00285	-0.00004
2.92600	0.00045	-0.00031	0.00264	0.00233	0.00285	-0.00004
2.92800	0.00045	-0.00031	0.00264	0.00233	0.00285	-0.00004
2.93000	0.00045	-0.00031	0.00264	0.00233	0.00285	-0.00004
2.93200	0.00045	-0.00031	0.00264	0.00233	0.00285	-0.00004
2.93400	0.00189	0.00318	-0.00024	0.00757	0.00223	0.00160
2.93600	0.00189	0.00318	-0.00024	0.00757	0.00223	0.00160
2.93800	0.00189	0.00318	-0.00024	0.00757	0.00223	0.00160
2.94000	0.00189	0.00318	-0.00024	0.00757	0.00223	0.00160
2.94200	0.00189	0.00318	-0.00024	0.00757	0.00223	0.00160
2.94400	0.00189	0.00318	-0.00024	0.00757	0.00223	0.00160
2.94600	0.00189	0.00318	-0.00024	0.00757	0.00223	0.00160
2.94800	0.00189	0.00318	-0.00024	0.00757	0.00223	0.00160
2.95000	0.00189	0.00318	-0.00024	0.00757	0.00223	0.00160
2.95200	0.00189	0.00318	-0.00024	0.00757	0.00223	0.00160
2.95400	0.00189	0.00318	-0.00024	0.00757	0.00223	0.00160
2.95600	0.00189	0.00318	-0.00024	0.00757	0.00223	0.00160
2.95800	0.00189	0.00318	-0.00024	0.00757	0.00223	0.00160
2.96000	0.00189	0.00318	-0.00024	0.00757	0.00223	0.00160
2.96200	0.00189	0.00318	-0.00024	0.00757	0.00223	0.00160
2.96400	0.00189	0.00318	-0.00024	0.00757	0.00223	0.00160
2.96600	0.00189	0.00318	-0.00024	0.00757	0.00223	0.00160
2.96800	0.00189	0.00318	-0.00024	0.00757	0.00223	0.00160
2.97000	0.00189	0.00318	-0.00024	0.00757	0.00223	0.00160
2.97200	0.00189	0.00318	-0.00024	0.00757	0.00223	0.00160
2.97400	0.00189	0.00318	-0.00024	0.00757	0.00223	0.00160
2.97600	0.00189	0.00318	-0.00024	0.00757	0.00223	0.00160
2.97800	0.00189	0.00318	-0.00024	0.00757	0.00223	0.00160
2.98000	0.00189	0.00318	-0.00024	0.00757	0.00223	0.00160
2.98200	0.00189	0.00318	-0.00024	0.00757	0.00223	0.00160
2.98400	0.00189	0.00318	-0.00024	0.00757	0.00223	0.00160
2.98600	0.00189	0.00318	-0.00024	0.00757	0.00223	0.00160
2.98800	0.00189	0.00318	-0.00024	0.00757	0.00223	0.00160
2.99000	0.00035	0.00462	0.00017	0.00407	0.00131	0.00417
2.99200	0.00035	0.00462	0.00017	0.00407	0.00131	0.00417
2.99400	0.00035	0.00462	0.00017	0.00407	0.00131	0.00417
2.99600	0.00035	0.00462	0.00017	0.00407	0.00131	0.00417
2.99800	0.00035	0.00462	0.00017	0.00407	0.00131	0.00417
3.00000	0.00035	0.00462	0.00017	0.00407	0.00131	0.00417
3.00200	0.00035	0.00462	0.00017	0.00407	0.00131	0.00417
3.00400	0.00035	0.00462	0.00017	0.00407	0.00131	0.00417
3.00600	0.00035	0.00462	0.00017	0.00407	0.00131	0.00417
3.00800	0.00035	0.00462	0.00017	0.00407	0.00131	0.00417
3.01000	0.00035	0.00462	0.00017	0.00407	0.00131	0.00417
3.01200	0.00035	0.00462	0.00017	0.00407	0.00131	0.00417
3.01400	0.00035	0.00462	0.00017	0.00407	0.00131	0.00417
3.01600	0.00035	0.00462	0.00017	0.00407	0.00131	0.00417
3.01800	0.00035	0.00462	0.00017	0.00407	0.00131	0.00417
3.02000	0.00035	0.00462	0.00017	0.00407	0.00131	0.00417
3.02200	0.00035	0.00462	0.00017	0.00407	0.00131	0.00417
3.02400	0.00035	0.00462	0.00017	0.00407	0.00131	0.00417
3.02600	0.00035	0.00462	0.00017	0.00407	0.00131	0.00417
3.02800	0.00035	0.00462	0.00017	0.00407	0.00131	0.00417
3.03000	0.00035	0.00462	0.00017	0.00407	0.00131	0.00417
3.03200	0.00035	0.00462	0.00017	0.00407	0.00131	0.00417
3.03400	0.00035	0.00462	0.00017	0.00407	0.00131	0.00417
3.03600	0.00035	0.00462	0.00017	0.00407	0.00131	0.00417
3.03800	0.00035	0.00462	0.00017	0.00407	0.00131	0.00417
3.04000	0.00035	0.00462	0.00017	0.00407	0.00131	0.00417
3.04200	0.00035	0.00462	0.00017	0.00407	0.00131	0.00417
3.04400	0.00035	0.00462	0.00017	0.00407	0.00131	0.00417
3.04600	0.00035	0.00462	0.00017	0.00407	0.00131	0.00417
3.04800	0.00755	-0.00103	0.00428	0.00520	-0.00157	0.00623
3.05000	0.00755	-0.00103	0.00428	0.00520	-0.00157	0.00623
3.05200	0.00755	-0.00103	0.00428	0.00520	-0.00157	0.00623
3.05400	0.00755	-0.00103	0.00428	0.00520	-0.00157	0.00623
3.05600	0.00755	-0.00103	0.00428	0.00520	-0.00157	0.00623
3.05800	0.00755	-0.00103	0.00428	0.00520	-0.00157	0.00623
3.06000	0.00755	-0.00103	0.00428	0.00520	-0.00157	0.00623
3.06200	0.00755	-0.00103	0.00428	0.00520	-0.00157	0.00623
3.06400	0.00755	-0.00103	0.00428	0.00520	-0.00157	0.00623
3.06600	0.00755	-0.00103	0.00428	0.00520	-0.00157	0.00623
3.06800	0.00755	-0.00103	0.00428	0.00520	-0.00157	0.00623
3.07000	0.00755	-0.00103	0.00428	0.00520	-0.00157	0.00623
3.07200	0.00755	-0.00103	0.00428	0.00520	-0.00157	0.00623
3.07400	0.00755	-0.00103	0.00428	0.00520	-0.00157	0.00623
3.07600	0.00755	-0.00103	0.00428	0.00520	-0.00157	0.00623
3.07800	0.00755	-0.00103	0.00428	0.00520	-0.00157	0.00623
3.08000	0.00755	-0.00103	0.00428	0.00520	-0.00157	0.00623
3.08200	0.00755	-0.00103	0.00428	0.00520	-0.00157	0.00623
3.08400	0.00755	-0.00103	0.00428	0.00520	-0.00157	0.00623
3.08600	0.00755	-0.00103	0.00428	0.00520	-0.00157	0.00623
3.08800	0.00755	-0.00103	0.00428	0.00520	-0.00157	0.00623
3.09000	0.00755	-0.00103	0.00428	0.00520	-0.00157	0.00623
3.09200	0.00755	-0.00103	0.00428	0.00520	-0.00157	0.00623
3.09400	0.00755	-0.00103	0.00428	0.00520	-0.00157	0.00623
3.09600	0.00755	-0.00103	0.00428	0.00520	-0.00157	0.00623
3.09800	0.00755	-0.00103	0.00428	0.00520	-0.00157	0.00623
3.10000	0.00755	-0.00103	0.00428	0.00520	-0.00157	0.00623
3.10200	0.00755	-0.00103	0.00428	0.00520	-0.00157	0.00623
3.10400	0.00045	0.00432	-0.00096	0.00654	0.00234	0.00582
3.10600	0.00045	0.00432	-0.00096	0.00654	0.00234	0.00582
3.10800	0.00045	0.00432	-0.00096	0.00654	0.00234	0.00582
3.11000	0.00045	0.00432	-0.00096	0.00654	0.00234	0.00582
3.11200	0.00045	0.00432	-0.00096	0.00654	0.00234	0.00582
3.11400	0.00045	0.00432	-0.00096	0.00654	0.00234	0.00582
3.11600	0.00045	0.00432	-0.00096	0.00654	0.00234	0.00582
3.11800	0.00045	0.00432	-0.00096	0.00654	0.00234	0.00582
3.12000	0.00045	0.00432	-0.00096	0.00654	0.00234	0.00582
3.12200	0.00045	0.00432	-0.00096	0.00654	0.00234	0.00582
3.12400	0.00045	0.00432	-0.00096	0.00654	0.00234	0.00582
3.12600	0.00045	0.00432	-0.00096	0.00654	0.00234	0.00582
3.12800	0.00045	0.00432	-0.00096	0.00654	0.00234	0.00582
3.13000	0.00045	0.00432	-0.00096	0.00654	0.00234	0.00582
3.13200	0.00045	0.00432	-0.00096	0.00654	0.00234	0.00582
3.13400	0.00045	0.00432	-0.00096	0.00654	0.00234	0.00582
3.13600	0.00045	0.00432	-0.00096	0.00654	0.00234	0.00582
3.13800	0.00045	0.00432	-0.00096	0.00654	0.00234	0.00582
3.14000	0.00045	0.00432	-0.00096	0.00654	0.00234	0.00582
3.14200	0.00045	0.00432	-0.00096	0.00654	0.00234	0.00582
3.14400	0.00045	0.00432	-0.00096	0.00654	0.00234	0.00582
3.14600	0.00045	0.00432	-0.00096	0.00654	0.00234	0.00582
3.14800	0.00045	0.00432	-0.00096	0.00654	0.00234	0.00582
3.15000	0.00045	0.00432	-0.00096	0.00654	0.00234	0.00582
3.15200	0.00045	0.00432	-0.00096	0.00654	0.00234	0.00582
3.15400	0.00045	0.00432	-0.00096	0.00654	0.00234	0.00582
3.15600	0.00045	0.00432	-0.00096	0.00654	0.00234	0.00582
3.15800	0.00045	0.00432	-0.00096	0.00654	0.00234	0.00582
3.16000	0.00045	0.00432	-0.00096	0.00654	0.00234	0.00582
3.16200	0.00744	-0.00052	0.00418	0.00243	0.00141	0.00654
3.16400	0.00744	-0.00052	0.00418	0.00243	0.00141	0.00654
3.16600	0.00744	-0.00052	0.00418	0.00243	0.00141	0.00654
3.16800	0.00744	-0.00052	0.00418	0.00243	0.00141	0.00654
3.17000	0.00744	-0.00052	0.00418	0.00243	0.00141	0.00654
3.17200	0.00744	-0.00052	0.00418	0.00243	0.00141	0.00654
3.17400	0.00744	-0.00052	0.00418	0.00243	0.00141	0.00654
3.17600	0.00744	-0.00052	0.00418	0.00243	0.00141	0.00654
3.17800	0.00744	-0.00052	0.00418	0.00243	0.00141	0.00654
3.18000	0.00744	-0.00052	0.00418	0.00243	0.00141	0.00654
3.18200	0.00744	-0.00052	0.00418	0.00243	0.00141	0.00654
3.18400	0.00744	-0.00052	0.00418	0.00243	0.00141	0.00654
3.18600	0.00744	-0.00052	0.00418	0.00243	0.00141	0.00654
3.18800	0.00744	-0.00052	0.00418	0.00243	0.00141	0.00654
3.19000	0.00744	-0.00052	0.00418	0.00243	0.00141	0.00654
3.19200	0.00744	-0.00052	0.00418	0.00243	0.00141	0.00654
3.19400	0.00744	-0.00052	0.00418	0.00243	0.00141	0.00654
3.19600	0.00744	-0.00052	0.00418	0.00243	0.00141	0.00654
3.19800	0.00744	-0.00052	0.00418	0.00243	0.00141	0.00654
3.20000	0.00744	-0.00052	0.00418	0.00243	0.00141	0.00654
3.20200	0.00744	-0.00052	0.00418	0.00243	0.00141	0.00654
3.20400	0.00744	-0.00052	0.00418	0.00243	0.00141	0.00654
3.20600	0.00744	-0.00052	0.00418	0.00243	0.00141	0.00654
3.20800	0.00744	-0.00052	0.00418	0.00243	0.00141	0.00654
3.21000	0.00744	-0.00052	0.00418	0.00243	0.00141	0.00654
3.21200	0.00744	-0.00052	0.00418	0.00243	0.00141	0.00654
3.21400	0.00744	-0.00052	0.00418	0.00243	0.00141	0.00654
3.21600	0.00744	-0.00052	0.00418	0.00243	0.00141	0.00654
3.21800	0.00744	-0.00052	0.00418	0.00243	0.00141	0.00654
3.22000	0.00282	-0.00062	0.00428	0.00181	0.00460	0.00284
3.22200	0.00282	-0.00062	0.00428	0.00181	0.00460	0.00284
3.22400	0.00282	-0.00062	0.00428	0.00181	0.00460	0.00284
3.22600	0.00282	-0.00062	0.00428	0.00181	0.00460	0.00284
3.22800	0.00282	-0.00062	0.00428	0.00181	0.00460	0.00284
3.23000	0.00282	-0.00062	0.00428	0.00181	0.00460	0.00284
3.23200	0.00282	-0.00062	0.00428	0.00181	0.00460	0.00284
3.23400	0.00282	-0.00062	0.00428	0.00181	0.00460	0.00284
3.23600	0.00282	-0.00062	0.00428	0.00181	0.00460	0.00284
3.23800	0.00282	-0.00062	0.00428	0.00181	0.00460	0.00284
3.24000	0.00282	-0.00062	0.00428	0.00181	0.00460	0.00284
3.24200	0.00282	-0.00062	0.00428	0.00181	0.00460	0.00284
3.24400	0.00282	-0.00062	0.00428	0.00181	0.00460	0.00284
3.24600	0.00282	-0.00062	0.00428	0.00181	0.00460	0.00284
3.24800	0.00282	-0.00062	0.00428	0.00181	0.00460	0.00284
3.25000	0.00282	-0.00062	0.00428	0.00181	0.00460	0.00284
3.25200	0.00282	-0.00062	0.00428	0.00181	0.00460	0.00284
3.25400	0.00282	-0.00062	0.00428	0.00181	0.00460	0.00284
3.25600	0.00282	-0.00062	0.00428	0.00181	0.00460	0.00284
3.25800	0.00282	-0.00062	0.00428	0.00181	0.00460	0.00284
3.26000	0.00282	-0.00062	0.00428	0.00181	0.00460	0.00284
3.26200	0.00282	-0.00062	0.00428	0.00181	0.00460	0.00284
3.26400	0.00282	-0.00062	0.00428	0.00181	0.00460	0.00284
3.26600	0.00282	-0.00062	0.00428	0.00181	0.00460	0.00284
3.26800	0.00282	-0.00062	0.00428	0.00181	0.00460	0.00284
3.27000	0.00282	-0.00062	0.00428	0.00181	0.00460	0.00284
3.27200	0.00282	-0.00062	0.00428	0.00181	0.00460	0.00284
3.27400	0.00282	-0.00062	0.00428	0.00181	0.00460	0.00284
3.27600	0.00282	-0.00062	0.00428	0.00181	0.00460	0.00284
3.27800	0.00282	-0.00062	0.00428	0.00181	0.00460	0.00284
3.28000	0.00220	0.00318	-0.00147	0.00603	-0.00291	0.00572
3.28200	0.00220	0.00318	-0.00147	0.00603	-0.00291	0.00572
3.28400	0.00220	0.00318	-0.00147	0.00603	-0.00291	0.00572
3.28600	0.00220	0.00318	-0.00147	0.00603	-0.00291	0.00572
3.28800	0.00220	0.00318	-0.00147	0.00603	-0.00291	0.00572
3.29000	0.00220	0.00318	-0.00147	0.00603	-0.00291	0.00572
3.29200	0.00220	0.00318	-0.00147	0.00603	-0.00291	0.00572
3.29400	0.00220	0.00318	-0.00147	0.00603	-0.00291	0.00572
3.29600	0.00220	0.00318	-0.00147	0.00603	-0.00291	0.00572
3.29800	0.00220	0.00318	-0.00147	0.00603	-0.00291	0.00572
3.30000	0.00220	0.00318	-0.00147	0.00603	-0.00291	0.00572
3.30200	0.00220	0.00318	-0.00147	0.00603	-0.00291	0.00572
3.30400	0.00220	0.00318	-0.00147	0.00603	-0.00291	0.00572
3.30600	0.00220	0.00318	-0.00147	0.00603	-0.00291	0.00572
3.30800	0.00220	0.00318	-0.00147	0.00603	-0.00291	0.00572
3.31000	0.00220	0.00318	-0.00147	0.00603	-0.00291	0.00572
3.31200	0.00220	0.00318	-0.00147	0.00603	-0.00291	0.00572
3.31400	0.00220	0.00318	-0.00147	0.00603	-0.00291	0.00572
3.31600	0.00220	0.00318	-0.00147	0.00603	-0.00291	0.00572
3.31800	0.00220	0.00318	-0.00147	0.00603	-0.00291	0.00572
3.32000	0.00220	0.00318	-0.00147	0.00603	-0.00291	0.00572
3.32200	0.00220	0.00318	-0.00147	0.00603	-0.00291	0.00572
3.32400	0.00220	0.00318	-0.00147	0.00603	-0.00291	0.00572
3.32600	0.00220	0.00318	-0.00147	0.00603	-0.00291	0.00572
3.32800	0.00220	0.00318	-0.00147	0.00603	-0.00291	0.00572
3.33000	0.00220	0.00318	-0.00147	0.00603	-0.00291	0.00572
3.33200	0.00220	0.00318	-0.00147	0.00603	-0.00291	0.00572
3.33400	0.00220	0.00318	-0.00147	0.00603	-0.00291	0.00572
3.33600	0.00220	0.00318	-0.00147	0.00603	-0.00291	0.00572
3.33800	-0.00284	0.00215	0.00418	0.00130	0.00511	-0.00148
3.34000	-0.00284	0.00215	0.00418	0.00130	0.00511	-0.00148
3.34200	-0.00284	0.00215	0.00418	0.00130	0.00511	-0.00148
3.34400	-0.00284	0.00215	0.00418	0.00130	0.00511	-0.00148
3.34600	-0.00284	0.00215	0.00418	0.00130	0.00511	-0.00148
3.34800	-0.00284	0.00215	0.00418	0.00130	0.00511	-0.00148
3.35000	-0.00284	0.00215	0.00418	0.00130	0.00511	-0.00148
3.35200	-0.00284	0.00215	0.00418	0.00130	0.00511	-0.00148
3.35400	-0.00284	0.00215	0.00418	0.00130	0.00511	-0.00148
3.35600	-0.00284	0.00215	0.00418	0.00130	0.00511	-0.00148
3.35800	-0.00284	0.00215	0.00418	0.00130	0.00511	-0.00148
3.36000	-0.00284	0.00215	0.00418	0.00130	0.00511	-0.00148
3.36200	-0.00284	0.00215	0.00418	0.00130	0.00511	-0.00148
3.36400	-0.00284	0.00215	0.00418	0.00130	0.00511	-0.00148
3.36600	-0.00284	0.00215	0.00418	0.00130	0.00511	-0.00148
3.36800	-0.00284	0.00215	0.00418	0.00130	0.00511	-0.00148
3.37000	-0.00284	0.00215	0.00418	0.00130	0.00511	-0.00148
3.37200	-0.00284	0.00215	0.00418	0.00130	0.00511	-0.00148
3.37400	-0.00284	0.00215	0.00418	0.00130	0.00511	-0.00148
3.37600	-0.00284	0.00215	0.00418	0.00130	0.00511	-0.00148
3.37800	-0.00284	0.00215	0.00418	0.00130	0.00511	-0.00148
3.38000	-0.00284	0.00215	0.00418	0.00130	0.00511	-0.00148
3.38200	-0.00284	0.00215	0.00418	0.00130	0.00511	-0.00148
3.38400	-0.00284	0.00215	0.00418	0.00130	0.00511	-0.00148
3.38600	-0.00284	0.00215	0.00418	0.00130	0.00511	-0.00148
3.38800	-0.00284	0.00215	0.00418	0.00130	0.00511	-0.00148
3.39000	-0.00284	0.00215	0.00418	0.00130	0.00511	-0.00148
3.39200	-0.00284	0.00215	0.00418	0.00130	0.00511	-0.00148
3.39400	-0.00284	0.00215	0.00418	0.00130	0.00511	-0.00148
3.39600	-0.00305	0.00339	0.00449	-0.00282	0.00861	-0.00364
3.39800	-0.00305	0.00339	0.00449	-0.00282	0.00861	-0.00364
3.40000	-0.00305	0.00339	0.00449	-0.00282	0.00861	-0.00364
3.40200	-0.00305	0.00339	0.00449	-0.00282	0.00861	-0.00364
3.40400	-0.00305	0.00339	0.00449	-0.00282	0.00861	-0.00364
3.40600	-0.00305	0.00339	0.00449	-0.00282	0.00861	-0.00364
3.40800	-0.00305	0.00339	0.00449	-0.00282	0.00861	-0.00364
3.41000	-0.00305	0.00339	0.00449	-0.00282	0.00861	-0.00364
3.41200	-0.00305	0.00339	0.00449	-0.00282	0.00861	-0.00364
3.41400	-0.00305	0.00339	0.00449	-0.00282	0.00861	-0.00364
3.41600	-0.00305	0.00339	0.00449	-0.00282	0.00861	-0.00364
3.41800	-0.00305	0.00339	0.00449	-0.00282	0.00861	-0.00364
3.42000	-0.00305	0.00339	0.00449	-0.00282	0.00861	-0.00364
3.42200	-0.00305	0.00339	0.00449	-0.00282	0.00861	-0.00364
3.42400	-0.00305	0.00339	0.00449	-0.00282	0.00861	-0.00364
3.42600	-0.00305	0.00339	0.00449	-0.00282	0.00861	-0.00364
3.42800	-0.00305	0.00339	0.00449	-0.00282	0.00861	-0.00364
3.43000	-0.00305	0.00339	0.00449	-0.00282	0.00861	-0.00364
3.43200	-0.00305	0.00339	0.00449	-0.00282	0.00861	-0.00364
3.43400	-0.00305	0.00339	0.00449	-0.00282	0.00861	-0.00364
3.43600	-0.00305	0.00339	0.00449	-0.00282	0.00861	-0.00364
3.43800	-0.00305	0.00339	0.00449	-0.00282	0.00861	-0.00364
3.44000	-0.00305	0.00339	0.00449	-0.00282	0.00861	-0.00364
3.44200	-0.00305	0.00339	0.00449	-0.00282	0.00861	-0.00364
3.44400	-0.00305	0.00339	0.00449	-0.00282	0.00861	-0.00364
3.44600	-0.00305	0.00339	0.00449	-0.00282	0.00861	-0.00364
3.44800	-0.00305	0.00339	0.00449	-0.00282	0.00861	-0.00364
3.45000	-0.00305	0.00339	0.00449	-0.00282	0.00861	-0.00364
3.45200	0.00168	-0.00268	0.00583	0.00109	0.00357	0.00171
3.45400	0.00168	-0.00268	0.00583	0.00109	0.00357	0.00171
3.45600	0.00168	-0.00268	0.00583	0.00109	0.00357	0.00171
3.45800	0.00168	-0.00268	0.00583	0.00109	0.00357	0.00171
3.46000	0.00168	-0.00268	0.00583	0.00109	0.00357	0.00171
3.46200	0.00168	-0.00268	0.00583	0.00109	0.00357	0.00171
3.46400	0.00168	-0.00268	0.00583	0.00109	0.00357	0.00171
3.46600	0.00168	-0.00268	0.00583	0.00109	0.00357	0.00171
3.46800	0.00168	-0.00268	0.00583	0.00109	0.00357	0.00171
3.47000	0.00168	-0.00268	0.00583	0.00109	0.00357	0.00171
3.47200	0.00168	-0.00268	0.00583	0.00109	0.00357	0.00171
3.47400	0.00168	-0.00268	0.00583	0.00109	0.00357	0.00171
3.47600	0.00168	-0.00268	0.00583	0.00109	0.00357	0.00171
3.47800	0.00168	-0.00268	0.00583	0.00109	0.00357	0.00171
3.48000	0.00168	-0.00268	0.00583	0.00109	0.00357	0.00171
3.48200	0.00168	-0.00268	0.00583	0.00109	0.00357	0.00171
3.48400	0.00168	-0.00268	0.00583	0.00109	0.00357	0.00171
3.48600	0.00168	-0.00268	0.00583	0.00109	0.00357	0.00171
3.48800	0.00168	-0.00268	0.00583	0.00109	0.00357	0.00171
3.49000	0.00168	-0.00268	0.00583	0.00109	0.00357	0.00171
3.49200	0.00168	-0.00268	0.00583	0.00109	0.00357	0.00171
3.49400	0.00168	-0.00268	0.00583	0.00109	0.00357	0.00171
3.49600	0.00168	-0.00268	0.00583	0.00109	0.00357	0.00171
3.49800	0.00168	-0.00268	0.00583	0.00109	0.00357	0.00171
3.50000	0.00168	-0.00268	0.00583	0.00109	0.00357	0.00171
3.50200	0.00168	-0.00268	0.00583	0.00109	0.00357	0.00171
3.50400	0.00168	-0.00268	0.00583	0.00109	0.00357	0.00171
3.50600	0.00168	-0.00268	0.00583	0.00109	0.00357	0.00171
3.50800	0.00168	-0.00268	0.00583	0.00109	0.00357	0.00171
3.51000	0.00210	0.00390	0.00058	0.00089	0.00182	-0.00097
3.51200	0.00210	0.00390	0.00058	0.00089	0.00182	-0.00097
3.51400	0.00210	0.00390	0.00058	0.00089	0.00182	-0.00097
3.51600	0.00210	0.00390	0.00058	0.00089	0.00182	-0.00097
3.51800	0.00210	0.00390	0.00058	0.00089	0.00182	-0.00097
3.52000	0.00210	0.00390	0.00058	0.00089	0.00182	-0.00097
3.52200	0.00210	0.00390	0.00058	0.00089	0.00182	-0.00097
3.52400	0.00210	0.00390	0.00058	0.00089	0.00182	-0.00097
3.52600	0.00210	0.00390	0.00058	0.00089	0.00182	-0.00097
3.52800	0.00210	0.00390	0.00058	0.00089	0.00182	-0.00097
3.53000	0.00210	0.00390	0.00058	0.00089	0.00182	-0.00097
3.53200	0.00210	0.00390	0.00058	0.00089	0.00182	-0.00097
3.53400	0.00210	0.00390	0.00058	0.00089	0.00182	-0.00097
3.53600	0.00210	0.00390	0.00058	0.00089	0.00182	-0.00097
3.53800	0.00210	0.00390	0.00058	0.00089	0.00182	-0.00097
3.54000	0.00210	0.00390	0.00058	0.00089	0.00182	-0.00097
3.54200	0.00210	0.00390	0.00058	0.00089	0.00182	-0.00097
3.54400	0.00210	0.00390	0.00058	0.00089	0.00182	-0.00097
3.54600	0.00210	0.00390	0.00058	0.00089	0.00182	-0.00097
3.54800	0.00210	0.00390	0.00058	0.00089	0.00182	-0.00097
3.55000	0.00210	0.00390	0.00058	0.00089	0.00182	-0.00097
3.55200	0.00210	0.00390	0.00058	0.00089	0.00182	-0.00097
3.55400	0.00210	0.00390	0.00058	0.00089	0.00182	-0.00097
3.55600	0.00210	0.00390	0.00058	0.00089	0.00182	-0.00097
3.55800	0.00210	0.00390	0.00058	0.00089	0.00182	-0.00097
3.56000	0.00210	0.00390	0.00058	0.00089	0.00182	-0.00097
3.56200	0.00210	0.00390	0.00058	0.00089	0.00182	-0.00097
3.56400	0.00210	0.00390	0.00058	0.00089	0.00182	-0.00097
3.56600	0.00210	0.00390	0.00058	0.00089	0.00182	-0.00097
3.56800	0.00734	-0.00309	0.00737	0.00274	0.00388	0.00129
3.57000	0.00734	-0.00309	0.00737	0.00274	0.00388	0.00129
3.57200	0.00734	-0.00309	0.00737	0.00274	0.00388	0.00129
3.57400	0.00734	-0.00309	0.00737	0.00274	0.00388	0.00129
3.57600	0.00734	-0.00309	0.00737	0.00274	0.00388	0.00129
3.57800	0.00734	-0.00309	0.00737	0.00274	0.00388	0.00129
3.58000	0.00734	-0.00309	0.00737	0.00274	0.00388	0.00129
3.58200	0.00734	-0.00309	0.00737	0.00274	0.00388	0.00129
3.58400	0.00734	-0.00309	0.00737	0.00274	0.00388	0.00129
3.58600	0.00734	-0.00309	0.00737	0.00274	0.00388	0.00129
3.58800	0.00734	-0.00309	0.00737	0.00274	0.00388	0.00129
3.59000	0.00734	-0.00309	0.00737	0.00274	0.00388	0.00129
3.59200	0.00734	-0.00309	0.00737	0.00274	0.00388	0.00129
3.59400	0.00734	-0.00309	0.00737	0.00274	0.00388	0.00129
3.59600	0.00734	-0.00309	0.00737	0.00274	0.00388	0.00129
3.59800	0.00734	-0.00309	0.00737	0.00274	0.00388	0.00129
3.60000	0.00734	-0.00309	0.00737	0.00274	0.00388	0.00129
3.60200	0.00734	-0.00309	0.00737	0.00274	0.00388	0.00129
3.60400	0.00734	-0.00309	0.00737	0.00274	0.00388	0.00129
3.60600	0.00734	-0.00309	0.00737	0.00274	0.00388	0.00129
3.60800	0.00734	-0.00309	0.00737	0.00274	0.00388	0.00129
3.61000	0.00734	-0.00309	0.00737	0.00274	0.00388	0.00129
3.61200	0.00734	-0.00309	0.00737	0.00274	0.00388	0.00129
3.61400	0.00734	-0.00309	0.00737	0.00274	0.00388	0.00129
3.61600	0.00734	-0.00309	0.00737	0.00274	0.00388	0.00129
3.61800	0.00734	-0.00309	0.00737	0.00274	0.00388	0.00129
3.62000	0.00734	-0.00309	0.00737	0.00274	0.00388	0.00129
3.62200	0.00734	-0.00309	0.00737	0.00274	0.00388	0.00129
3.62400	0.00127	0.00267	0.00346	0.00562	0.00213	0.00212
3.62600	0.00127	0.00267	0.00346	0.00562	0.00213	0.00212
3.62800	0.00127	0.00267	0.00346	0.00562	0.00213	0.00212
3.63000	0.00127	0.00267	0.00346	0.00562	0.00213	0.00212
3.63200	0.00127	0.00267	0.00346	0.00562	0.00213	0.00212
3.63400	0.00127	0.00267	0.00346	0.00562	0.00213	0.00212
3.63600	0.00127	0.00267	0.00346	0.00562	0.00213	0.00212
3.63800	0.00127	0.00267	0.00346	0.00562	0.00213	0.00212
3.64000	0.00127	0.00267	0.00346	0.00562	0.00213	0.00212
3.64200	0.00127	0.00267	0.00346	0.00562	0.00213	0.00212
3.64400	0.00127	0.00267	0.00346	0.00562	0.00213	0.00212
3.64600	0.00127	0.00267	0.00346	0.00562	0.00213	0.00212
3.64800	0.00127	0.00267	0.00346	0.00562	0.00213	0.00212
3.65000	0.00127	0.00267	0.00346	0.00562	0.00213	0.00212
3.65200	0.00127	0.00267	0.00346	0.00562	0.00213	0.00212
3.65400	0.00127	0.00267	0.00346	0.00562	0.00213	0.00212
3.65600	0.00127	0.00267	0.00346	0.00562	0.00213	0.00212
3.65800	0.00127	0.00267	0.00346	0.00562	0.00213	0.00212
3.66000	0.00127	0.00267	0.00346	0.00562	0.00213	0.00212
3.66200	0.00127	0.00267	0.00346	0.00562	0.00213	0.00212
3.66400	0.00127	0.00267	0.00346	0.00562	0.00213	0.00212
3.66600	0.00127	0.00267	0.00346	0.00562	0.00213	0.00212
3.66800	0.00127	0.00267	0.00346	0.00562	0.00213	0.00212
3.67000	0.00127	0.00267	0.00346	0.00562	0.00213	0.00212
3.67200	0.00127	0.00267	0.00346	0.00562	0.00213	0.00212
3.67400	0.00127	0.00267	0.00346	0.00562	0.00213	0.00212
3.67600	0.00127	0.00267	0.00346	0.00562	0.00213	0.00212
3.67800	0.00127	0.00267	0.00346	0.00562	0.00213	0.00212
3.68000	0.00127	0.00267	0.00346	0.00562	0.00213	0.00212
3.68200	0.00652	0.00082	0.00593	0.00140	0.00151	0.00489
3.68400	0.00652	0.00082	0.00593	0.00140	0.00151	0.00489
3.68600	0.00652	0.00082	0.00593	0.00140	0.00151	0.00489
3.68800	0.00652	0.00082	0.00593	0.00140	0.00151	0.00489
3.69000	0.00652	0.00082	0.00593	0.00140	0.00151	0.00489
3.69200	0.00652	0.00082	0.00593	0.00140	0.00151	0.00489
3.69400	0.00652	0.00082	0.00593	0.00140	0.00151	0.00489
3.69600	0.00652	0.00082	0.00593	0.00140	0.00151	0.00489
3.69800	0.00652	0.00082	0.00593	0.00140	0.00151	0.00489
3.70000	0.00652	0.00082	0.00593	0.00140	0.00151	0.00489
3.70200	0.00652	0.00082	0.00593	0.00140	0.00151	0.00489
3.70400	0.00652	0.00082	0.00593	0.00140	0.00151	0.00489
3.70600	0.00652	0.00082	0.00593	0.00140	0.00151	0.00489
3.70800	0.00652	0.00082	0.00593	0.00140	0.00151	0.00489
3.71000	0.00652	0.00082	0.00593	0.00140	0.00151	0.00489
3.71200	0.00652	0.00082	0.00593	0.00140	0.00151	0.00489
3.71400	0.00652	0.00082	0.00593	0.00140	0.00151	0.00489
3.71600	0.00652	0.00082	0.00593	0.00140	0.00151	0.00489
3.71800	0.00652	0.00082	0.00593	0.00140	0.00151	0.00489
3.72000	0.00652	0.00082	0.00593	0.00140	0.00151	0.00489
3.72200	0.00652	0.00082	0.00593	0.00140	0.00151	0.00489
3.72400	0.00652	0.00082	0.00593	0.00140	0.00151	0.00489
3.72600	0.00652	0.00082	0.00593	0.00140	0.00151	0.00489
3.72800	0.00652	0.00082	0.00593	0.00140	0.00151	0.00489
3.73000	0.00652	0.00082	0.00593	0.00140	0.00151	0.00489
3.73200	0.00652	0.00082	0.00593	0.00140	0.00151	0.00489
3.73400	0.00652	0.00082	0.00593	0.00140	0.00151	0.00489
3.73600	0.00652	0.00082	0.00593	0.00140	0.00151	0.00489
3.73800	0.00652	0.00082	0.00593	0.00140	0.00151	0.00489
3.74000	0.00230	0.00411	0.00305	-0.00107	0.00563	0.00201
3.74200	0.00230	0.00411	0.00305	-0.00107	0.00563	0.00201
3.74400	0.00230	0.00411	0.00305	-0.00107	0.00563	0.00201
3.74600	0.00230	0.00411	0.00305	-0.00107	0.00563	0.00201
3.74800	0.00230	0.00411	0.00305	-0.00107	0.00563	0.00201
3.75000	0.00230	0.00411	0.00305	-0.00107	0.00563	0.00201
3.75200	0.00230	0.00411	0.00305	-0.00107	0.00563	0.00201
3.75400	0.00230	0.00411	0.00305	-0.00107	0.00563	0.00201
3.75600	0.00230	0.00411	0.00305	-0.00107	0.00563	0.00201
3.75800	0.00230	0.00411	0.00305	-0.00107	0.00563	0.00201
3.76000	0.00230	0.00411	0.00305	-0.00107	0.00563	0.00201
3.76200	0.00230	0.00411	0.00305	-0.00107	0.00563	0.00201
3.76400	0.00230	0.00411	0.00305	-0.00107	0.00563	0.00201
3.76600	0.00230	0.00411	0.00305	-0.00107	0.00563	0.00201
3.76800	0.00230	0.00411	0.00305	-0.00107	0.00563	0.00201
3.77000	0.00230	0.00411	0.00305	-0.00107	0.00563	0.00201
3.77200	0.00230	0.00411	0.00305	-0.00107	0.00563	0.00201
3.77400	0.00230	0.00411	0.00305	-0.00107	0.00563	0.00201
3.77600	0.00230	0.00411	0.00305	-0.00107	0.00563	0.00201
3.77800	0.00230	0.00411	0.00305	-0.00107	0.00563	0.00201
3.78000	0.00230	0.00411	0.00305	-0.00107	0.00563	0.00201
3.78200	0.00230	0.00411	0.00305	-0.00107	0.00563	0.00201
3.78400	0.00230	0.00411	0.00305	-0.00107	0.00563	0.00201
3.78600	0.00230	0.00411	0.00305	-0.00107	0.00563	0.00201
3.78800	0.00230	0.00411	0.00305	-0.00107	0.00563	0.00201
3.79000	0.00230	0.00411	0.00305	-0.00107	0.00563	0.00201
3.79200	0.00230	0.00411	0.00305	-0.00107	0.00563	0.00201
3.79400	0.00230	0.00411	0.00305	-0.00107	0.00563	0.00201
3.79600	0.00230	0.00411	0.00305	-0.00107	0.00563	0.00201
3.79800	0.00683	-0.00042	0.00192	0.00634	-0.00157	0.00634
3.80000	0.00683	-0.00042	0.00192	0.00634	-0.00157	0.00634
3.80200	0.00683	-0.00042	0.00192	0.00634	-0.00157	0.00634
3.80400	0.00683	-0.00042	0.00192	0.00634	-0.00157	0.00634
3.80600	0.00683	-0.00042	0.00192	0.00634	-0.00157	0.00634
3.80800	0.00683	-0.00042	0.00192	0.00634	-0.00157	0.00634
3.81000	0.00683	-0.00042	0.00192	0.00634	-0.00157	0.00634
3.81200	0.00683	-0.00042	0.00192	0.00634	-0.00157	0.00634
3.81400	0.00683	-0.00042	0.00192	0.00634	-0.00157	0.00634
3.81600	0.00683	-0.00042	0.00192	0.00634	-0.00157	0.00634
3.81800	0.00683	-0.00042	0.00192	0.00634	-0.00157	0.00634
3.82000	0.00683	-0.00042	0.00192	0.00634	-0.00157	0.00634
3.82200	0.00683	-0.00042	0.00192	0.00634	-0.00157	0.00634
3.82400	0.00683	-0.00042	0.00192	0.00634	-0.00157	0.00634
3.82600	0.00683	-0.00042	0.00192	0.00634	-0.00157	0.00634
3.82800	0.00683	-0.00042	0.00192	0.00634	-0.00157	0.00634
3.83000	0.00683	-0.00042	0.00192	0.00634	-0.00157	0.00634
3.83200	0.00683	-0.00042	0.00192	0.00634	-0.00157	0.00634
3.83400	0.00683	-0.00042	0.00192	0.00634	-0.00157	0.00634
3.83600	0.00683	-0.00042	0.00192	0.00634	-0.00157	0.00634
3.83800	0.00683	-0.00042	0.00192	0.00634	-0.00157	0.00634
3.84000	0.00683	-0.00042	0.00192	0.00634	-0.00157	0.00634
3.84200	0.00683	-0.00042	0.00192	0.00634	-0.00157	0.00634
3.84400	0.00683	-0.00042	0.00192	0.00634	-0.00157	0.00634
3.84600	0.00683	-0.00042	0.00192	0.00634	-0.00157	0.00634
3.84800	0.00683	-0.00042	0.00192	0.00634	-0.00157	0.00634
3.85000	0.00683	-0.00042	0.00192	0.00634	-0.00157	0.00634
3.85200	0.00683	-0.00042	0.00192	0.00634	-0.00157	0.00634
3.85400	0.00683	-0.00042	0.00192	0.00634	-0.00157	0.00634
3.85600	0.00158	0.00123	0.00367	0.00551	0.00357	0.00438
3.85800	0.00158	0.00123	0.00367	0.00551	0.00357	0.00438
3.86000	0.00158	0.00123	0.00367	0.00551	0.00357	0.00438
3.86200	0.00158	0.00123	0.00367	0.00551	0.00357	0.00438
3.86400	0.00158	0.00123	0.00367	0.00551	0.00357	0.00438
3.86600	0.00158	0.00123	0.00367	0.00551	0.00357	0.00438
3.86800	0.00158	0.00123	0.00367	0.00551	0.00357	0.00438
3.87000	0.00158	0.00123	0.00367	0.00551	0.00357	0.00438
3.87200	0.00158	0.00123	0.00367	0.00551	0.00357	0.00438
3.87400	0.00158	0.00123	0.00367	0.00551	0.00357	0.00438
3.87600	0.00158	0.00123	0.00367	0.00551	0.00357	0.00438
3.87800	0.00158	0.00123	0.00367	0.00551	0.00357	0.00438
3.88000	0.00158	0.00123	0.00367	0.00551	0.00357	0.00438
3.88200	0.00158	0.00123	0.00367	0.00551	0.00357	0.00438
3.88400	0.00158	0.00123	0.00367	0.00551	0.00357	0.00438
3.88600	0.00158	0.00123	0.00367	0.00551	0.00357	0.00438
3.88800	0.00158	0.00123	0.00367	0.00551	0.00357	0.00438
3.89000	0.00158	0.00123	0.00367	0.00551	0.00357	0.00438
3.89200	0.00158	0.00123	0.00367	0.00551	0.00357	0.00438
3.89400	0.00158	0.00123	0.00367	0.00551	0.00357	0.00438
3.89600	0.00158	0.00123	0.00367	0.00551	0.00357	0.00438
3.89800	0.00158	0.00123	0.00367	0.00551	0.00357	0.00438
3.90000	0.00158	0.00123	0.00367	0.00551	0.00357	0.00438
3.90200	0.00158	0.00123	0.00367	0.00551	0.00357	0.00438
3.90400	0.00158	0.00123	0.00367	0.00551	0.00357	0.00438
3.90600	0.00158	0.00123	0.00367	0.00551	0.00357	0.00438
3.90800	0.00158	0.00123	0.00367	0.00551	0.00357	0.00438
3.91000	0.00158	0.00123	0.00367	0.00551	0.00357	0.00438
3.91200	0.00364	0.00092	0.00182	0.00243	0.00141	0.00294
3.91400	0.00364	0.00092	0.00182	0.00243	0.00141	0.00294
3.91600	0.00364	0.00092	0.00182	0.00243	0.00141	0.00294
3.91800	0.00364	0.00092	0.00182	0.00243	0.00141	0.00294
3.92000	0.00364	0.00092	0.00182	0.00243	0.00141	0.00294
3.92200	0.00364	0.00092	0.00182	0.00243	0.00141	0.00294
3.92400	0.00364	0.00092	0.00182	0.00243	0.00141	0.00294
3.92600	0.00364	0.00092	0.00182	0.00243	0.00141	0.00294
3.92800	0.00364	0.00092	0.00182	0.00243	0.00141	0.00294
3.93000	0.00364	0.00092	0.00182	0.00243	0.00141	0.00294
3.93200	0.00364	0.00092	0.00182	0.00243	0.00141	0.00294
3.93400	0.00364	0.00092	0.00182	0.00243	0.00141	0.00294
3.93600	0.00364	0.00092	0.00182	0.00243	0.00141	0.00294
3.93800	0.00364	0.00092	0.00182	0.00243	0.00141	0.00294
3.94000	0.00364	0.00092	0.00182	0.00243	0.00141	0.00294
3.94200	0.00364	0.00092	0.00182	0.00243	0.00141	0.00294
3.94400	0.00364	0.00092	0.00182	0.00243	0.00141	0.00294
3.94600	0.00364	0.00092	0.00182	0.00243	0.00141	0.00294
3.94800	0.00364	0.00092	0.00182	0.00243	0.00141	0.00294
3.95000	0.00364	0.00092	0.00182	0.00243	0.00141	0.00294
3.95200	0.00364	0.00092	0.00182	0.00243	0.00141	0.00294
3.95400	0.00364	0.00092	0.00182	0.00243	0.00141	0.00294
3.95600	0.00364	0.00092	0.00182	0.00243	0.00141	0.00294
3.95800	0.00364	0.00092	0.00182	0.00243	0.00141	0.00294
3.96000	0.00364	0.00092	0.00182	0.00243	0.00141	0.00294
3.96200	0.00364	0.00092	0.00182	0.00243	0.00141	0.00294
3.96400	0.00364	0.00092	0.00182	0.00243	0.00141	0.00294
3.96600	0.00364	0.00092	0.00182	0.00243	0.00141	0.00294
3.96800	0.00364	0.00092	0.00182	0.00243	0.00141	0.00294
3.97000	0.00292	0.00668	0.00099	0.00068	0.00141	0.00037
3.97200	0.00292	0.00668	0.00099	0.00068	0.00141	0.00037
3.97400	0.00292	0.00668	0.00099	0.00068	0.00141	0.00037
3.97600	0.00292	0.00668	0.00099	0.00068	0.00141	0.00037
3.97800	0.00292	0.00668	0.00099	0.00068	0.00141	0.00037
3.98000	0.00292	0.00668	0.00099	0.00068	0.00141	0.00037
3.98200	0.00292	0.00668	0.00099	0.00068	0.00141	0.00037
3.98400	0.00292	0.00668	0.00099	0.00068	0.00141	0.00037
3.98600	0.00292	0.00668	0.00099	0.00068	0.00141	0.00037
3.98800	0.00292	0.00668	0.00099	0.00068	0.00141	0.00037
3.99000	0.00292	0.00668	0.00099	0.00068	0.00141	0.00037
3.99200	0.00292	0.00668	0.00099	0.00068	0.00141	0.00037
3.99400	0.00292	0.00668	0.00099	0.00068	0.00141	0.00037
3.99600	0.00292	0.00668	0.00099	0.00068	0.00141	0.00037
3.99800	0.00292	0.00668	0.00099	0.00068	0.00141	0.00037
4.00000	0.00292	0.00668	0.00099	0.00068	0.00141	0.00037
4.00200	0.00292	0.00668	0.00099	0.00068	0.00141	0.00037
4.00400	0.00292	0.00668	0.00099	0.00068	0.00141	0.00037
4.00600	0.00292	0.00668	0.00099	0.00068	0.00141	0.00037
4.00800	0.00292	0.00668	0.00099	0.00068	0.00141	0.00037
4.01000	0.00292	0.00668	0.00099	0.00068	0.00141	0.00037
4.01200	0.00292	0.00668	0.00099	0.00068	0.00141	0.00037
4.01400	0.00292	0.00668	0.00099	0.00068	0.00141	0.00037
4.01600	0.00292	0.00668	0.00099	0.00068	0.00141	0.00037
4.01800	0.00292	0.00668	0.00099	0.00068	0.00141	0.00037
4.02000	0.00292	0.00668	0.00099	0.00068	0.00141	0.00037
4.02200	0.00292	0.00668	0.00099	0.00068	0.00141	0.00037
4.02400	0.00292	0.00668	0.00099	0.00068	0.00141	0.00037
4.02600	0.00292	0.00668	0.00099	0.00068	0.00141	0.00037
4.02800	0.00230	0.00267	0.00850	-0.00107	0.00470	0.00222
4.03000	0.00230	0.00267	0.00850	-0.00107	0.00470	0.00222
4.03200	0.00230	0.00267	0.00850	-0.00107	0.00470	0.00222
4.03400	0.00230	0.00267	0.00850	-0.00107	0.00470	0.00222
4.03600	0.00230	0.00267	0.00850	-0.00107	0.00470	0.00222
4.03800	0.00230	0.00267	0.00850	-0.00107	0.00470	0.00222
4.04000	0.00230	0.00267	0.00850	-0.00107	0.00470	0.00222
4.04200	0.00230	0.00267	0.00850	-0.00107	0.00470	0.00222
4.04400	0.00230	0.00267	0.00850	-0.00107	0.00470	0.00222
4.04600	0.00230	0.00267	0.00850	-0.00107	0.00470	0.00222
4.04800	0.00230	0.00267	0.00850	-0.00107	0.00470	0.00222
4.05000	0.00230	0.00267	0.00850	-0.00107	0.00470	0.00222
4.05200	0.00230	0.00267	0.00850	-0.00107	0.00470	0.00222
4.05400	0.00230	0.00267	0.00850	-0.00107	0.00470	0.00222
4.05600	0.00230	0.00267	0.00850	-0.00107	0.00470	0.00222
4.05800	0.00230	0.00267	0.00850	-0.00107	0.00470	0.00222
4.06000	0.00230	0.00267	0.00850	-0.00107	0.00470	0.00222
4.06200	0.00230	0.00267	0.00850	-0.00107	0.00470	0.00222
4.06400	0.00230	0.00267	0.00850	-0.00107	0.00470	0.00222
4.06600	0.00230	0.00267	0.00850	-0.00107	0.00470	0.00222
4.06800	0.00230	0.00267	0.00850	-0.00107	0.00470	0.00222
4.07000	0.00230	0.00267	0.00850	-0.00107	0.00470	0.00222
4.07200	0.00230	0.00267	0.00850	-0.00107	0.00470	0.00222
4.07400	0.00230	0.00267	0.00850	-0.00107	0.00470	0.00222
4.07600	0.00230	0.00267	0.00850	-0.00107	0.00470	0.00222
4.07800	0.00230	0.00267	0.00850	-0.00107	0.00470	0.00222
4.08000	0.00230	0.00267	0.00850	-0.00107	0.00470	0.00222
4.08200	0.00230	0.00267	0.00850	-0.00107	0.00470	0.00222
4.08400	0.00230	0.00267	0.00850	-0.00107	0.00470	0.00222
4.08600	0.00261	0.00473	-0.00024	-0.00117	0.00439	0.00273
4.08800	0.00261	0.00473	-0.00024	-0.00117	0.00439	0.00273
4.09000	0.00261	0.00473	-0.00024	-0.00117	0.00439	0.00273
4.09200	0.00261	0.00473	-0.00024	-0.00117	0.00439	0.00273
4.09400	0.00261	0.00473	-0.00024	-0.00117	0.00439	0.00273
4.09600	0.00261	0.00473	-0.00024	-0.00117	0.00439	0.00273
4.09800	0.00261	0.00473	-0.00024	-0.00117	0.00439	0.00273
4.10000	0.00261	0.00473	-0.00024	-0.00117	0.00439	0.00273
4.10200	0.00261	0.00473	-0.00024	-0.00117	0.00439	0.00273
4.10400	0.00261	0.00473	-0.00024	-0.00117	0.00439	0.00273
4.10600	0.00261	0.00473	-0.00024	-0.00117	0.00439	0.00273
4.10800	0.00261	0.00473	-0.00024	-0.00117	0.00439	0.00273
4.11000	0.00261	0.00473	-0.00024	-0.00117	0.00439	0.00273
4.11200	0.00261	0.00473	-0.00024	-0.00117	0.00439	0.00273
4.11400	0.00261	0.00473	-0.00024	-0.00117	0.00439	0.00273
4.11600	0.00261	0.00473	-0.00024	-0.00117	0.00439	0.00273
4.11800	0.00261	0.00473	-0.00024	-0.00117	0.00439	0.00273
4.12000	0.00261	0.00473	-0.00024	-0.00117	0.00439	0.00273
4.12200	0.00261	0.00473	-0.00024	-0.00117	0.00439	0.00273
4.12400	0.00261	0.00473	-0.00024	-0.00117	0.00439	0.00273
4.12600	0.00261	0.00473	-0.00024	-0.00117	0.00439	0.00273
4.12800	0.00261	0.00473	-0.00024	-0.00117	0.00439	0.00273
4.13000	0.00261	0.00473	-0.00024	-0.00117	0.00439	0.00273
4.13200	0.00261	0.00473	-0.00024	-0.00117	0.00439	0.00273
4.13400	0.00261	0.00473	-0.00024	-0.00117	0.00439	0.00273
4.13600	0.00261	0.00473	-0.00024	-0.00117	0.00439	0.00273
4.13800	0.00261	0.00473	-0.00024	-0.00117	0.00439	0.00273
4.14000	0.00261	0.00473	-0.00024	-0.00117	0.00439	0.00273
4.14200	0.00261	0.00473	-0.00024	-0.00117	0.00439	0.00273
4.14400	0.00261	0.00267	0.00500	0.00397	0.00532	0.00273
4.14600	0.00261	0.00267	0.00500	0.00397	0.00532	0.00273
4.14800	0.00261	0.00267	0.00500	0.00397	0.00532	0.00273
4.15000	0.00261	0.00267	0.00500	0.00397	0.00532	0.00273
4.15200	0.00261	0.00267	0.00500	0.00397	0.00532	0.00273
4.15400	0.00261	0.00267	0.00500	0.00397	0.00532	0.00273
4.15600	0.00261	0.00267	0.00500	0.00397	0.00532	0.00273
4.15800	0.00261	0.00267	0.00500	0.00397	0.00532	0.00273
4.16000	0.00261	0.00267	0.00500	0.00397	0.00532	0.00273
4.16200	0.00261	0.00267	0.00500	0.00397	0.00532	0.00273
4.16400	0.00261	0.00267	0.00500	0.00397	0.00532	0.00273
4.16600	0.00261	0.00267	0.00500	0.00397	0.00532	0.00273
4.16800	0.00261	0.00267	0.00500	0.00397	0.00532	0.00273
4.17000	0.00261	0.00267	0.00500	0.00397	0.00532	0.00273
4.17200	0.00261	0.00267	0.00500	0.00397	0.00532	0.00273
4.17400	0.00261	0.00267	0.00500	0.00397	0.00532	0.00273
4.17600	0.00261	0.00267	0.00500	0.00397	0.00532	0.00273
4.17800	0.00261	0.00267	0.00500	0.00397	0.00532	0.00273
4.18000	0.00261	0.00267	0.00500	0.00397	0.00532	0.00273
4.18200	0.00261	0.00267	0.00500	0.00397	0.00532	0.00273
4.18400	0.00261	0.00267	0.00500	0.00397	0.00532	0.00273
4.18600	0.00261	0.00267	0.00500	0.00397	0.00532	0.00273
4.18800	0.00261	0.00267	0.00500	0.00397	0.00532	0.00273
4.19000	0.00261	0.00267	0.00500	0.00397	0.00532	0.00273
4.19200	0.00261	0.00267	0.00500	0.00397	0.00532	0.00273
4.19400	0.00261	0.00267	0.00500	0.00397	0.00532	0.00273
4.19600	0.00261	0.00267	0.00500	0.00397	0.00532	0.00273
4.19800	0.00261	0.00267	0.00500	0.00397	0.00532	0.00273
4.20000	0.00261	0.00267	0.00500	0.00397	0.00532	0.00273
4.20200	0.00271	-0.00011	0.00151	0.00387	0.00213	0.00232
4.20400	0.00271	-0.00011	0.00151	0.00387	0.00213	0.00232
4.20600	0.00271	-0.00011	0.00151	0.00387	0.00213	0.00232
4.20800	0.00271	-0.00011	0.00151	0.00387	0.00213	0.00232
4.21000	0.00271	-0.00011	0.00151	0.00387	0.00213	0.00232
4.21200	0.00271	-0.00011	0.00151	0.00387	0.00213	0.00232
4.21400	0.00271	-0.00011	0.00151	0.00387	0.00213	0.00232
4.21600	0.00271	-0.00011	0.00151	0.00387	0.00213	0.00232
4.21800	0.00271	-0.00011	0.00151	0.00387	0.00213	0.00232
4.22000	0.00271	-0.00011	0.00151	0.00387	0.00213	0.00232
4.22200	0.00271	-0.00011	0.00151	0.00387	0.00213	0.00232
4.22400	0.00271	-0.00011	0.00151	0.00387	0.00213	0.00232
4.22600	0.00271	-0.00011	0.00151	0.00387	0.00213	0.00232
4.22800	0.00271	-0.00011	0.00151	0.00387	0.00213	0.00232
4.23000	0.00271	-0.00011	0.00151	0.00387	0.00213	0.00232
4.23200	0.00271	-0.00011	0.00151	0.00387	0.00213	0.00232
4.23400	0.00271	-0.00011	0.00151	0.00387	0.00213	0.00232
4.23600	0.00271	-0.00011	0.00151	0.00387	0.00213	0.00232
4.23800	0.00271	-0.00011	0.00151	0.00387	0.00213	0.00232
4.24000	0.00271	-0.00011	0.00151	0.00387	0.00213	0.00232
4.24200	0.00271	-0.00011	0.00151	0.00387	0.00213	0.00232
4.24400	0.00271	-0.00011	0.00151	0.00387	0.00213	0.00232
4.24600	0.00271	-0.00011	0.00151	0.00387	0.00213	0.00232
4.24800	0.00271	-0.00011	0.00151	0.00387	0.00213	0.00232
4.25000	0.00271	-0.00011	0.00151	0.00387	0.00213	0.00232
4.25200	0.00271	-0.00011	0.00151	0.00387	0.00213	0.00232
4.25400	0.00271	-0.00011	0.00151	0.00387	0.00213	0.00232
4.25600	0.00271	-0.00011	0.00151	0.00387	0.00213	0.00232
4.25800	0.00271	-0.00011	0.00151	0.00387	0.00213	0.00232
4.26000	0.00354	0.00041	0.00151	0.00068	0.00162	0.00263
4.26200	0.00354	0.00041	0.00151	0.00068	0.00162	0.00263
4.26400	0.00354	0.00041	0.00151	0.00068	0.00162	0.00263
4.26600	0.00354	0.00041	0.00151	0.00068	0.00162	0.00263
4.26800	0.00354	0.00041	0.00151	0.00068	0.00162	0.00263
4.27000	0.00354	0.00041	0.00151	0.00068	0.00162	0.00263
4.27200	0.00354	0.00041	0.00151	0.00068	0.00162	0.00263
4.27400	0.00354	0.00041	0.00151	0.00068	0.00162	0.00263
4.27600	0.00354	0.00041	0.00151	0.00068	0.00162	0.00263
4.27800	0.00354	0.00041	0.00151	0.00068	0.00162	0.00263
4.28000	0.00354	0.00041	0.00151	0.00068	0.00162	0.00263
4.28200	0.00354	0.00041	0.00151	0.00068	0.00162	0.00263
4.28400	0.00354	0.00041	0.00151	0.00068	0.00162	0.00263
4.28600	0.00354	0.00041	0.00151	0.00068	0.00162	0.00263
4.28800	0.00354	0.00041	0.00151	0.00068	0.00162	0.00263
4.29000	0.00354	0.00041	0.00151	0.00068	0.00162	0.00263
4.29200	0.00354	0.00041	0.00151	0.00068	0.00162	0.00263
4.29400	0.00354	0.00041	0.00151	0.00068	0.00162	0.00263
4.29600	0.00354	0.00041	0.00151	0.00068	0.00162	0.00263
4.29800	0.00354	0.00041	0.00151	0.00068	0.00162	0.00263
4.30000	0.00354	0.00041	0.00151	0.00068	0.00162	0.00263
4.30200	0.00354	0.00041	0.00151	0.00068	0.00162	0.00263
4.30400	0.00354	0.00041	0.00151	0.00068	0.00162	0.00263
4.30600	0.00354	0.00041	0.00151	0.00068	0.00162	0.00263
4.30800	0.00354	0.00041	0.00151	0.00068	0.00162	0.00263
4.31000	0.00354	0.00041	0.00151	0.00068	0.00162	0.00263
4.31200	0.00354	0.00041	0.00151	0.00068	0.00162	0.00263
4.31400	0.00354	0.00041	0.00151	0.00068	0.00162	0.00263
4.31600	0.00354	0.00041	0.00151	0.00068	0.00162	0.00263
4.31800	0.00045	0.00205	0.00470	0.00078	-0.00178	0.00160
4.32000	0.00045	0.00205	0.00470	0.00078	-0.00178	0.00160
4.32200	0.00045	0.00205	0.00470	0.00078	-0.00178	0.00160
4.32400	0.00045	0.00205	0.00470	0.00078	-0.00178	0.00160
4.32600	0.00045	0.00205	0.00470	0.00078	-0.00178	0.00160
4.32800	0.00045	0.00205	0.00470	0.00078	-0.00178	0.00160
4.33000	0.00045	0.00205	0.00470	0.00078	-0.00178	0.00160
4.33200	0.00045	0.00205	0.00470	0.00078	-0.00178	0.00160
4.33400	0.00045	0.00205	0.00470	0.00078	-0.00178	0.00160
4.33600	0.00045	0.00205	0.00470	0.00078	-0.00178	0.00160
4.33800	0.00045	0.00205	0.00470	0.00078	-0.00178	0.00160
4.34000	0.00045	0.00205	0.00470	0.00078	-0.00178	0.00160
4.34200	0.00045	0.00205	0.00470	0.00078	-0.00178	0.00160
4.34400	0.00045	0.00205	0.00470	0.00078	-0.00178	0.00160
4.34600	0.00045	0.00205	0.00470	0.00078	-0.00178	0.00160
4.34800	0.00045	0.00205	0.00470	0.00078	-0.00178	0.00160
4.35000	0.00045	0.00205	0.00470	0.00078	-0.00178	0.00160
4.35200	0.00045	0.00205	0.00470	0.00078	-0.00178	0.00160
4.35400	0.00045	0.00205	0.00470	0.00078	-0.00178	0.00160
4.35600	0.00045	0.00205	0.00470	0.00078	-0.00178	0.00160
4.35800	0.00045	0.00205	0.00470	0.00078	-0.00178	0.00160
4.36000	0.00045	0.00205	0.00470	0.00078	-0.00178	0.00160
4.36200	0.00045	0.00205	0.00470	0.00078	-0.00178	0.00160
4.36400	0.00045	0.00205	0.00470	0.00078	-0.00178	0.00160
4.36600	0.00045	0.00205	0.00470	0.00078	-0.00178	0.00160
4.36800	0.00045	0.00205	0.00470	0.00078	-0.00178	0.00160
4.37000	0.00045	0.00205	0.00470	0.00078	-0.00178	0.00160
4.37200	0.00045	0.00205	0.00470	0.00078	-0.00178	0.00160
4.37400	0.00045	0.00205	0.00470	0.00078	-0.00178	0.00160
4.37600	0.00333	0.00349	0.00336	0.00099	0.00347	0.00253
4.37800	0.00333	0.00349	0.00336	0.00099	0.00347	0.00253
4.38000	0.00333	0.00349	0.00336	0.00099	0.00347	0.00253
4.38200	0.00333	0.00349	0.00336	0.00099	0.00347	0.00253
4.38400	0.00333	0.00349	0.00336	0.00099	0.00347	0.00253
4.38600	0.00333	0.00349	0.00336	0.00099	0.00347	0.00253
4.38800	0.00333	0.00349	0.00336	0.00099	0.00347	0.00253
4.39000	0.00333	0.00349	0.00336	0.00099	0.00347	0.00253
4.39200	0.00333	0.00349	0.00336	0.00099	0.00347	0.00253
4.39400	0.00333	0.00349	0.00336	0.00099	0.00347	0.00253
4.39600	0.00333	0.00349	0.00336	0.00099	0.00347	0.00253
4.39800	0.00333	0.00349	0.00336	0.00099	0.00347	0.00253
4.40000	0.00333	0.00349	0.00336	0.00099	0.00347	0.00253
4.40200	0.00333	0.00349	0.00336	0.00099	0.00347	0.00253
4.40400	0.00333	0.00349	0.00336	0.00099	0.00347	0.00253
4.40600	0.00333	0.00349	0.00336	0.00099	0.00347	0.00253
4.40800	0.00333	0.00349	0.00336	0.00099	0.00347	0.00253
4.41000	0.00333	0.00349	0.00336	0.00099	0.00347	0.00253
4.41200	0.00333	0.00349	0.00336	0.00099	0.00347	0.00253
4.41400	0.00333	0.00349	0.00336	0.00099	0.00347	0.00253
4.41600	0.00333	0.00349	0.00336	0.00099	0.00347	0.00253
4.41800	0.00333	0.00349	0.00336	0.00099	0.00347	0.00253
4.42000	0.00333	0.00349	0.00336	0.00099	0.00347	0.00253
4.42200	0.00333	0.00349	0.00336	0.00099	0.00347	0.00253
4.42400	0.00333	0.00349	0.00336	0.00099	0.00347	0.00253
4.42600	0.00333	0.00349	0.00336	0.00099	0.00347	0.00253
4.42800	0.00333	0.00349	0.00336	0.00099	0.00347	0.00253
4.43000	0.00333	0.00349	0.00336	0.00099	0.00347	0.00253
4.43200	0.00333	0.00349	0.00336	0.00099	0.00347	0.00253
4.43400	0.00456	0.00041	0.00470	-0.00055	0.00306	0.00201
4.43600	0.00456	0.00041	0.00470	-0.00055	0.00306	0.00201
4.43800	0.00456	0.00041	0.00470	-0.00055	0.00306	0.00201
4.44000	0.00456	0.00041	0.00470	-0.00055	0.00306	0.00201
4.44200	0.00456	0.00041	0.00470	-0.00055	0.00306	0.00201
4.44400	0.00456	0.00041	0.00470	-0.00055	0.00306	0.00201
4.44600	0.00456	0.00041	0.00470	-0.00055	0.00306	0.00201
4.44800	0.00456	0.00041	0.00470	-0.00055	0.00306	0.00201
4.45000	0.00456	0.00041	0.00470	-0.00055	0.00306	0.00201
4.45200	0.00456	0.00041	0.00470	-0.00055	0.00306	0.00201
4.45400	0.00456	0.00041	0.00470	-0.00055	0.00306	0.00201
4.45600	0.00456	0.00041	0.00470	-0.00055	0.00306	0.00201
4.45800	0.00456	0.00041	0.00470	-0.00055	0.00306	0.00201
4.46000	0.00456	0.00041	0.00470	-0.00055	0.00306	0.00201
4.46200	0.00456	0.00041	0.00470	-0.00055	0.00306	0.00201
4.46400	0.00456	0.00041	0.00470	-0.00055	0.00306	0.00201
4.46600	0.00456	0.00041	0.00470	-0.00055	0.00306	0.00201
4.46800	0.00456	0.00041	0.00470	-0.00055	0.00306	0.00201
4.47000	0.00456	0.00041	0.00470	-0.00055	0.00306	0.00201
4.47200	0.00456	0.00041	0.00470	-0.00055	0.00306	0.00201
4.47400	0.00456	0.00041	0.00470	-0.00055	0.00306	0.00201
4.47600	0.00456	0.00041	0.00470	-0.00055	0.00306	0.00201
4.47800	0.00456	0.00041	0.00470	-0.00055	0.00306	0.00201
4.48000	0.00456	0.00041	0.00470	-0.00055	0.00306	0.00201
4.48200	0.00456	0.00041	0.00470	-0.00055	0.00306	0.00201
4.48400	0.00456	0.00041	0.00470	-0.00055	0.00306	0.00201
4.48600	0.00456	0.00041	0.00470	-0.00055	0.00306	0.00201
4.48800	0.00456	0.00041	0.00470	-0.00055	0.00306	0.00201
4.49000	0.00456	0.00041	0.00470	-0.00055	0.00306	0.00201
4.49200	0.00395	0.00257	0.00500	-0.00271	0.00563	-0.00004
4.49400	0.00395	0.00257	0.00500	-0.00271	0.00563	-0.00004
4.49600	0.00395	0.00257	0.00500	-0.00271	0.00563	-0.00004
4.49800	0.00395	0.00257	0.00500	-0.00271	0.00563	-0.00004
4.50000	0.00395	0.00257	0.00500	-0.00271	0.00563	-0.00004
4.50200	0.00395	0.00257	0.00500	-0.00271	0.00563	-0.00004
4.50400	0.00395	0.00257	0.00500	-0.00271	0.00563	-0.00004
4.50600	0.00395	0.00257	0.00500	-0.00271	0.00563	-0.00004
4.50800	0.00395	0.00257	0.00500	-0.00271	0.00563	-0.00004
4.51000	0.00395	0.00257	0.00500	-0.00271	0.00563	-0.00004
4.51200	0.00395	0.00257	0.00500	-0.00271	0.00563	-0.00004
4.51400	0.00395	0.00257	0.00500	-0.00271	0.00563	-0.00004
4.51600	0.00395	0.00257	0.00500	-0.00271	0.00563	-0.00004
4.51800	0.00395	0.00257	0.00500	-0.00271	0.00563	-0.00004
4.52000	0.00395	0.00257	0.00500	-0.00271	0.00563	-0.00004
4.52200	0.00395	0.00257	0.00500	-0.00271	0.00563	-0.00004
4.52400	0.00395	0.00257	0.00500	-0.00271	0.00563	-0.00004
4.52600	0.00395	0.00257	0.00500	-0.00271	0.00563	-0.00004
4.52800	0.00395	0.00257	0.00500	-0.00271	0.00563	-0.00004
4.53000	0.00395	0.00257	0.00500	-0.00271	0.00563	-0.00004
4.53200	0.00395	0.00257	0.00500	-0.00271	0.00563	-0.00004
4.53400	0.00395	0.00257	0.00500	-0.00271	0.00563	-0.00004
4.53600	0.00395	0.00257	0.00500	-0.00271	0.00563	-0.00004
4.53800	0.00395	0.00257	0.00500	-0.00271	0.00563	-0.00004
4.54000	0.00395	0.00257	0.00500	-0.00271	0.00563	-0.00004
4.54200	0.00395	0.00257	0.00500	-0.00271	0.00563	-0.00004
4.54400	0.00395	0.00257	0.00500	-0.00271	0.00563	-0.00004
4.54600	0.00395	0.00257	0.00500	-0.00271	0.00563	-0.00004
4.54800	0.00395	0.00257	0.00500	-0.00271	0.00563	-0.00004
4.55000	0.00600	0.00473	-0.00065	0.00479	0.00018	0.00942
4.55200	0.00600	0.00473	-0.00065	0.00479	0.00018	0.00942
4.55400	0.00600	0.00473	-0.00065	0.00479	0.00018	0.00942
4.55600	0.00600	0.00473	-0.00065	0.00479	0.00018	0.00942
4.55800	0.00600	0.00473	-0.00065	0.00479	0.00018	0.00942
4.56000	0.00600	0.00473	-0.00065	0.00479	0.00018	0.00942
4.56200	0.00600	0.00473	-0.00065	0.00479	0.00018	0.00942
4.56400	0.00600	0.00473	-0.00065	0.00479	0.00018	0.00942
4.56600	0.00600	0.00473	-0.00065	0.00479	0.00018	0.00942
4.56800	0.00600	0.00473	-0.00065	0.00479	0.00018	0.00942
4.57000	0.00600	0.00473	-0.00065	0.00479	0.00018	0.00942
4.57200	0.00600	0.00473	-0.00065	0.00479	0.00018	0.00942
4.57400	0.00600	0.00473	-0.00065	0.00479	0.00018	0.00942
4.57600	0.00600	0.00473	-0.00065	0.00479	0.00018	0.00942
4.57800	0.00600	0.00473	-0.00065	0.00479	0.00018	0.00942
4.58000	0.00600	0.00473	-0.00065	0.00479	0.00018	0.00942
4.58200	0.00600	0.00473	-0.00065	0.00479	0.00018	0.00942
4.58400	0.00600	0.00473	-0.00065	0.00479	0.00018	0.00942
4.58600	0.00600	0.00473	-0.00065	0.00479	0.00018	0.00942
4.58800	0.00600	0.00473	-0.00065	0.00479	0.00018	0.00942
4.59000	0.00600	0.00473	-0.00065	0.00479	0.00018	0.00942
4.59200	0.00600	0.00473	-0.00065	0.00479	0.00018	0.00942
4.59400	0.00600	0.00473	-0.00065	0.00479	0.00018	0.00942
4.59600	0.00600	0.00473	-0.00065	0.00479	0.00018	0.00942
4.59800	0.00600	0.00473	-0.00065	0.00479	0.00018	0.00942
4.60000	0.00600	0.00473	-0.00065	0.00479	0.00018	0.00942
4.60200	0.00600	0.00473	-0.00065	0.00479	0.00018	0.00942
4.60400	0.00600	0.00473	-0.00065	0.00479	0.00018	0.00942
4.60600	0.00600	0.00473	-0.00065	0.00479	0.00018	0.00942
4.60800	-0.00233	0.00555	0.00171	0.00047	0.00265	0.00088
4.61000	-0.00233	0.00555	0.00171	0.00047	0.00265	0.00088
4.61200	-0.00233	0.00555	0.00171	0.00047	0.00265	0.00088
4.61400	-0.00233	0.00555	0.00171	0.00047	0.00265	0.00088
4.61600	-0.00233	0.00555	0.00171	0.00047	0.00265	0.00088
4.61800	-0.00233	0.00555	0.00171	0.00047	0.00265	0.00088
4.62000	-0.00233	0.00555	0.00171	0.00047	0.00265	0.00088
4.62200	-0.00233	0.00555	0.00171	0.00047	0.00265	0.00088
4.62400	-0.00233	0.00555	0.00171	0.00047	0.00265	0.00088
4.62600	-0.00233	0.00555	0.00171	0.00047	0.00265	0.00088
4.62800	-0.00233	0.00555	0.00171	0.00047	0.00265	0.00088
4.63000	-0.00233	0.00555	0.00171	0.00047	0.00265	0.00088
4.63200	-0.00233	0.00555	0.00171	0.00047	0.00265	0.00088
4.63400	-0.00233	0.00555	0.00171	0.00047	0.00265	0.00088
4.63600	-0.00233	0.00555	0.00171	0.00047	0.00265	0.00088
4.63800	-0.00233	0.00555	0.00171	0.00047	0.00265	0.00088
4.64000	-0.00233	0.00555	0.00171	0.00047	0.00265	0.00088
4.64200	-0.00233	0.00555	0.00171	0.00047	0.00265	0.00088
4.64400	-0.00233	0.00555	0.00171	0.00047	0.00265	0.00088
4.64600	-0.00233	0.00555	0.00171	0.00047	0.00265	0.00088
4.64800	-0.00233	0.00555	0.00171	0.00047	0.00265	0.00088
4.65000	-0.00233	0.00555	0.00171	0.00047	0.00265	0.00088
4.65200	-0.00233	0.00555	0.00171	0.00047	0.00265	0.00088
4.65400	-0.00233	0.00555	0.00171	0.00047	0.00265	0.00088
4.65600	-0.00233	0.00555	0.00171	0.00047	0.00265	0.00088
4.65800	-0.00233	0.00555	0.00171	0.00047	0.00265	0.00088
4.66000	-0.00233	0.00555	0.00171	0.00047	0.00265	0.00088
4.66200	-0.00233	0.00555	0.00171	0.00047	0.00265	0.00088
4.66400	-0.00233	0.00555	0.00171	0.00047	0.00265	0.00088
4.66600	0.00189	0.00287	0.00459	0.00017	0.00645	0.00078
4.66800	0.00189	0.00287	0.00459	0.00017	0.00645	0.00078
4.67000	0.00189	0.00287	0.00459	0.00017	0.00645	0.00078
4.67200	0.00189	0.00287	0.00459	0.00017	0.00645	0.00078
4.67400	0.00189	0.00287	0.00459	0.00017	0.00645	0.00078
4.67600	0.00189	0.00287	0.00459	0.00017	0.00645	0.00078
4.67800	0.00189	0.00287	0.00459	0.00017	0.00645	0.00078
4.68000	0.00189	0.00287	0.00459	0.00017	0.00645	0.00078
4.68200	0.00189	0.00287	0.00459	0.00017	0.00645	0.00078
4.68400	0.00189	0.00287	0.00459	0.00017	0.00645	0.00078
4.68600	0.00189	0.00287	0.00459	0.00017	0.00645	0.00078
4.68800	0.00189	0.00287	0.00459	0.00017	0.00645	0.00078
4.69000	0.00189	0.00287	0.00459	0.00017	0.00645	0.00078
4.69200	0.00189	0.00287	0.00459	0.00017	0.00645	0.00078
4.69400	0.00189	0.00287	0.00459	0.00017	0.00645	0.00078
4.69600	0.00189	0.00287	0.00459	0.00017	0.00645	0.00078
4.69800	0.00189	0.00287	0.00459	0.00017	0.00645	0.00078
4.70000	0.00189	0.00287	0.00459	0.00017	0.00645	0.00078
4.70200	0.00189	0.00287	0.00459	0.00017	0.00645	0.00078
4.70400	0.00189	0.00287	0.00459	0.00017	0.00645	0.00078
4.70600	0.00189	0.00287	0.00459	0.00017	0.00645	0.00078
4.70800	0.00189	0.00287	0.00459	0.00017	0.00645	0.00078
4.71000	0.00189	0.00287	0.00459	0.00017	0.00645	0.00078
4.71200	0.00189	0.00287	0.00459	0.00017	0.00645	0.00078
4.71400	0.00189	0.00287	0.00459	0.00017	0.00645	0.00078
4.71600	0.00189	0.00287	0.00459	0.00017	0.00645	0.00078
4.71800	0.00189	0.00287	0.00459	0.00017	0.00645	0.00078
4.72000	0.00189	0.00287	0.00459	0.00017	0.00645	0.00078
4.72200	0.00220	-0.00073	0.00346	-0.00097	0.00809	-0.00159
4.72400	0.00220	-0.00073	0.00346	-0.00097	0.00809	-0.00159
4.72600	0.00220	-0.00073	0.00346	-0.00097	0.00809	-0.00159
4.72800	0.00220	-0.00073	0.00346	-0.00097	0.00809	-0.00159
4.73000	0.00220	-0.00073	0.00346	-0.00097	0.00809	-0.00159
4.73200	0.00220	-0.00073	0.00346	-0.00097	0.00809	-0.00159
4.73400	0.00220	-0.00073	0.00346	-0.00097	0.00809	-0.00159
4.73600	0.00220	-0.00073	0.00346	-0.00097	0.00809	-0.00159
4.73800	0.00220	-0.00073	0.00346	-0.00097	0.00809	-0.00159
4.74000	0.00220	-0.00073	0.00346	-0.00097	0.00809	-0.00159
4.74200	0.00220	-0.00073	0.00346	-0.00097	0.00809	-0.00159
4.74400	0.00220	-0.00073	0.00346	-0.00097	0.00809	-0.00159
4.74600	0.00220	-0.00073	0.00346	-0.00097	0.00809	-0.00159
4.74800	0.00220	-0.00073	0.00346	-0.00097	0.00809	-0.00159
4.75000	0.00220	-0.00073	0.00346	-0.00097	0.00809	-0.00159
4.75200	0.00220	-0.00073	0.00346	-0.00097	0.00809	-0.00159
4.75400	0.00220	-0.00073	0.00346	-0.00097	0.00809	-0.00159
4.75600	0.00220	-0.00073	0.00346	-0.00097	0.00809	-0.00159
4.75800	0.00220	-0.00073	0.00346	-0.00097	0.00809	-0.00159
4.76000	0.00220	-0.00073	0.00346	-0.00097	0.00809	-0.00159
4.76200	0.00220	-0.00073	0.00346	-0.00097	0.00809	-0.00159
4.76400	0.00220	-0.00073	0.00346	-0.00097	0.00809	-0.00159
4.76600	0.00220	-0.00073	0.00346	-0.00097	0.00809	-0.00159
4.76800	0.00220	-0.00073	0.00346	-0.00097	0.00809	-0.00159
4.77000	0.00220	-0.00073	0.00346	-0.00097	0.00809	-0.00159
4.77200	0.00220	-0.00073	0.00346	-0.00097	0.00809	-0.00159
4.77400	0.00220	-0.00073	0.00346	-0.00097	0.00809	-0.00159
4.77600	0.00220	-0.00073	0.00346	-0.00097	0.00809	-0.00159
4.77800	0.00220	-0.00073	0.00346	-0.00097	0.00809	-0.00159
4.78000	0.00580	0.00082	0.00182	0.00428	0.00080	0.00243
4.78200	0.00580	0.00082	0.00182	0.00428	0.00080	0.00243
4.78400	0.00580	0.00082	0.00182	0.00428	0.00080	0.00243
4.78600	0.00580	0.00082	0.00182	0.00428	0.00080	0.00243
4.78800	0.00580	0.00082	0.00182	0.00428	0.00080	0.00243
4.79000	0.00580	0.00082	0.00182	0.00428	0.00080	0.00243
4.79200	0.00580	0.00082	0.00182	0.00428	0.00080	0.00243
4.79400	0.00580	0.00082	0.00182	0.00428	0.00080	0.00243
4.79600	0.00580	0.00082	0.00182	0.00428	0.00080	0.00243
4.79800	0.00580	0.00082	0.00182	0.00428	0.00080	0.00243
4.80000	0.00580	0.00082	0.00182	0.00428	0.00080	0.00243
4.80200	0.00580	0.00082	0.00182	0.00428	0.00080	0.00243
4.80400	0.00580	0.00082	0.00182	0.00428	0.00080	0.00243
4.80600	0.00580	0.00082	0.00182	0.00428	0.00080	0.00243
4.80800	0.00580	0.00082	0.00182	0.00428	0.00080	0.00243
4.81000	0.00580	0.00082	0.00182	0.00428	0.00080	0.00243
4.81200	0.00580	0.00082	0.00182	0.00428	0.00080	0.00243
4.81400	0.00580	0.00082	0.00182	0.00428	0.00080	0.00243
4.81600	0.00580	0.00082	0.00182	0.00428	0.00080	0.00243
4.81800	0.00580	0.00082	0.00182	0.00428	0.00080	0.00243
4.82000	0.00580	0.00082	0.00182	0.00428	0.00080	0.00243
4.82200	0.00580	0.00082	0.00182	0.00428	0.00080	0.00243
4.82400	0.00580	0.00082	0.00182	0.00428	0.00080	0.00243
4.82600	0.00580	0.00082	0.00182	0.00428	0.00080	0.00243
4.82800	0.00580	0.00082	0.00182	0.00428	0.00080	0.00243
4.83000	0.00580	0.00082	0.00182	0.00428	0.00080	0.00243
4.83200	0.00580	0.00082	0.00182	0.00428	0.00080	0.00243
4.83400	0.00580	0.00082	0.00182	0.00428	0.00080	0.00243
4.83600	0.00580	0.00082	0.00182	0.00428	0.00080	0.00243
4.83800	0.00210	0.00154	0.00541	0.00438	0.00367	0.00099
4.84000	0.00210	0.00154	0.00541	0.00438	0.00367	0.00099
4.84200	0.00210	0.00154	0.00541	0.00438	0.00367	0.00099
4.84400	0.00210	0.00154	0.00541	0.00438	0.00367	0.00099
4.84600	0.00210	0.00154	0.00541	0.00438	0.00367	0.00099
4.84800	0.00210	0.00154	0.00541	0.00438	0.00367	0.00099
4.85000	0.00210	0.00154	0.00541	0.00438	0.00367	0.00099
4.85200	0.00210	0.00154	0.00541	0.00438	0.00367	0.00099
4.85400	0.00210	0.00154	0.00541	0.00438	0.00367	0.00099
4.85600	0.00210	0.00154	0.00541	0.00438	0.00367	0.00099
4.85800	0.00210	0.00154	0.00541	0.00438	0.00367	0.00099
4.86000	0.00210	0.00154	0.00541	0.00438	0.00367	0.00099
4.86200	0.00210	0.00154	0.00541	0.00438	0.00367	0.00099
4.86400	0.00210	0.00154	0.00541	0.00438	0.00367	0.00099
4.86600	0.00210	0.00154	0.00541	0.00438	0.00367	0.00099
4.86800	0.00210	0.00154	0.00541	0.00438	0.00367	0.00099
4.87000	0.00210	0.00154	0.00541	0.00438	0.00367	0.00099
4.87200	0.00210	0.00154	0.00541	0.00438	0.00367	0.00099
4.87400	0.00210	0.00154	0.00541	0.00438	0.00367	0.00099
4.87600	0.00210	0.00154	0.00541	0.00438	0.00367	0.00099
4.87800	0.00210	0.00154	0.00541	0.00438	0.00367	0.00099
4.88000	0.00210	0.00154	0.00541	0.00438	0.00367	0.00099
4.88200	0.00210	0.00154	0.00541	0.00438	0.00367	0.00099
4.88400	0.00210	0.00154	0.00541	0.00438	0.00367	0.00099
4.88600	0.00210	0.00154	0.00541	0.00438	0.00367	0.00099
4.88800	0.00210	0.00154	0.00541	0.00438	0.00367	0.00099
4.89000	0.00210	0.00154	0.00541	0.00438	0.00367	0.00099
4.89200	0.00210	0.00154	0.00541	0.00438	0.00367	0.00099
4.89400	0.00210	0.00154	0.00541	0.00438	0.00367	0.00099
4.89600	-0.00150	0.00462	0.00346	0.00058	0.01005	-0.00169
4.89800	-0.00150	0.00462	0.00346	0.00058	0.01005	-0.00169
4.90000	-0.00150	0.00462	0.00346	0.00058	0.01005	-0.00169
4.90200	-0.00150	0.00462	0.00346	0.00058	0.01005	-0.00169
4.90400	-0.00150	0.00462	0.00346	0.00058	0.01005	-0.00169
4.90600	-0.00150	0.00462	0.00346	0.00058	0.01005	-0.00169
4.90800	-0.00150	0.00462	0.00346	0.00058	0.01005	-0.00169
4.91000	-0.00150	0.00462	0.00346	0.00058	0.01005	-0.00169
