90 Deg Fixed Reg 5 13-Apr-2018
Time(s) LoadCell(N)
0.000000 -0.272155
0.020000 -0.217276
0.040000 -0.178179
0.060000 -0.243490
0.080000 -0.185545
0.100000 -0.230831
0.120000 -0.217752
0.140000 -0.215820
0.160000 -0.209434
0.180000 -0.223858
0.200000 -0.240424
0.220000 -0.174398
0.240000 -0.239808
0.260000 -0.185881
0.280000 -0.199856
0.300000 -0.224306
0.320000 -0.153841
0.340000 -0.222261
0.360000 -0.205191
0.380000 -0.145677
0.400000 -0.193737
0.420000 -0.193513
0.440000 -0.168600
0.460000 -0.166122
0.480000 -0.148436
0.500000 -0.199226
0.520000 -0.196831
0.540000 -0.128509
0.560000 -0.193261
0.580000 -0.185012
0.600000 -0.193148
0.620000 -0.155437
0.640000 -0.172465
0.660000 -0.234360
0.680000 -0.118637
0.700000 -0.189956
0.720000 -0.208510
0.740000 -0.165254
0.760000 -0.210667
0.780000 -0.154863
0.800000 -0.222934
0.820000 -0.206424
0.840000 -0.123720
0.860000 -0.228129
0.880000 -0.227023
0.900000 -0.147427
0.920000 -0.219615
0.940000 -0.248154
0.960000 -0.200850
0.980000 -0.248420
1.000000 -0.183570
1.020000 -0.262605
1.040000 -0.249778
1.060000 -0.191692
1.080000 -0.261919
1.100000 -0.243406
1.120000 -0.233058
1.140000 -0.252943
1.160000 -0.272589
1.180000 -0.226981
1.200000 -0.234865
1.220000 -0.253083
1.240000 -0.242384
1.260000 -0.239345
1.280000 -0.195683
1.300000 -0.260099
1.320000 -0.268234
1.340000 -0.192140
1.360000 -0.222079
1.380000 -0.247930
1.400000 -0.243449
1.420000 -0.189466
1.440000 -0.201690
1.460000 -0.239080
1.480000 -0.236461
1.500000 -0.165884
1.520000 -0.231083
1.540000 -0.256290
1.560000 -0.196467
1.580000 -0.231322
1.600000 -0.196453
1.620000 -0.216926
1.640000 -0.209882
1.660000 -0.174888
1.680000 -0.211521
1.700000 -0.173138
1.720000 -0.181526
1.740000 -0.195725
1.760000 -0.181610
1.780000 -0.147483
1.800000 -0.156894
1.820000 -0.185741
1.840000 -0.140244
1.860000 -0.123650
1.880000 -0.158476
1.900000 -0.171485
1.920000 -0.158448
1.940000 -0.114603
1.960000 -0.187211
1.980000 -0.200206
2.000000 -0.133088
2.020000 -0.130889
2.040000 -0.190138
2.060000 -0.201242
2.080000 -0.164176
2.100000 -0.146895
2.120000 -0.220721
2.140000 -0.207558
2.160000 -0.180335
2.180000 -0.182436
2.200000 -0.181540
2.220000 -0.240494
2.240000 -0.191608
2.260000 -0.175238
2.280000 -0.239822
2.300000 -0.199800
2.320000 -0.227345
2.340000 -0.247916
2.360000 -0.191440
2.380000 -0.245563
2.400000 -0.249554
2.420000 -0.229893
2.440000 -0.234893
2.460000 -0.227149
2.480000 -0.252145
2.500000 -0.275432
2.520000 -0.190810
2.540000 -0.221771
2.560000 -0.273094
2.580000 -0.241586
2.600000 -0.201494
2.620000 -0.204253
2.640000 -0.245367
2.660000 -0.239892
2.680000 -0.196621
2.700000 -0.165730
2.720000 -0.242664
2.740000 -0.230523
2.760000 -0.147554
2.780000 -0.196201
2.800000 -0.204715
2.820000 -0.157706
2.840000 -0.201144
2.860000 -0.159204
2.880000 -0.162943
2.900000 -0.208398
2.920000 -0.152315
2.940000 -0.179215
2.960000 -0.164890
2.980000 -0.126128
3.000000 -0.184704
3.020000 -0.143226
3.040000 -0.127375
3.060000 -0.147063
3.080000 -0.180027
3.100000 -0.144585
3.120000 -0.109058
3.140000 -0.178193
3.160000 -0.160101
3.180000 -0.138941
3.200000 -0.115220
3.220000 -0.143030
3.240000 -0.170841
3.260000 -0.125820
3.280000 -0.099676
3.300000 -0.158574
3.320000 -0.170869
3.340000 -0.108400
3.360000 -0.156852
3.380000 -0.135441
3.400000 -0.155521
3.420000 -0.169217
3.440000 -0.121577
3.460000 -0.168643
3.480000 -0.157650
3.500000 -0.154205
3.520000 -0.155535
3.540000 -0.153295
3.560000 -0.126184
3.580000 -0.168405
3.600000 -0.190278
3.620000 -0.098598
3.640000 -0.156936
3.660000 -0.189255
3.680000 -0.179439
3.700000 -0.157664
3.720000 -0.164525
3.740000 -0.191426
3.760000 -0.195543
3.780000 -0.162817
3.800000 -0.147175
3.820000 -0.210317
3.840000 -0.175336
3.860000 -0.183808
3.880000 -0.198946
3.900000 -0.174608
3.920000 -0.182128
3.940000 -0.209112
3.960000 -0.191160
3.980000 -0.161753
4.000000 -0.208230
4.020000 -0.197671
4.040000 -0.186217
4.060000 -0.201410
4.080000 -0.175420
4.100000 -0.263053
4.120000 -0.212571
4.140000 -0.163825
4.160000 -0.254959
4.180000 -0.257004
4.200000 -0.198022
4.220000 -0.209616
4.240000 -0.254609
4.260000 -0.245269
4.280000 -0.248042
4.300000 -0.226798
4.320000 -0.267030
4.340000 -0.282924
4.360000 -0.246347
4.380000 -0.250044
4.400000 -0.298412
4.420000 -0.284422
4.440000 -0.272491
4.460000 -0.317932
4.480000 -0.298664
4.500000 -0.336963
4.520000 -0.338713
4.540000 -0.304461
4.560000 -0.389336
4.580000 -0.343643
4.600000 -0.343811
4.620000 -0.385905
4.640000 -0.335507
4.660000 -0.383020
4.680000 -0.403605
4.700000 -0.365502
4.720000 -0.386661
4.740000 -0.427005
4.760000 -0.386115
4.780000 -0.405454
4.800000 -0.382012
4.820000 -0.405649
4.840000 -0.411993
4.860000 -0.386045
4.880000 -0.391142
4.900000 -0.376172
4.920000 -0.424988
4.940000 -0.367252
4.960000 -0.371719
4.980000 -0.403941
5.000000 -0.337747
5.020000 -0.389546
5.040000 -0.358486
5.060000 -0.316672
5.080000 -0.354075
5.100000 -0.331572
5.120000 -0.331446
5.140000 -0.327525
5.160000 -0.300050
5.180000 -0.300722
5.200000 -0.326264
5.220000 -0.257102
5.240000 -0.286761
5.260000 -0.284898
5.280000 -0.220721
5.300000 -0.274452
5.320000 -0.219699
5.340000 -0.205948
5.360000 -0.217472
5.380000 -0.195599
5.400000 -0.167844
5.420000 -0.147539
5.440000 -0.136141
5.460000 -0.132220
5.480000 -0.124840
5.500000 -0.061531
5.520000 -0.059724
5.540000 -0.084636
5.560000 -0.016888
5.580000 0.006624
5.600000 0.019801
5.620000 0.036171
5.640000 0.072313
5.660000 0.080925
5.680000 0.105865
5.700000 0.119967
5.720000 0.135160
5.740000 0.201550
5.760000 0.177731
5.780000 0.187953
5.800000 0.273500
5.820000 0.244555
5.840000 0.248210
5.860000 0.313815
5.880000 0.281552
5.900000 0.339694
5.920000 0.318745
5.940000 0.302319
5.960000 0.387263
5.980000 0.353963
6.000000 0.329457
6.020000 0.394363
6.040000 0.357548
6.060000 0.339694
6.080000 0.372840
6.100000 0.319865
6.120000 0.347367
6.140000 0.335507
6.160000 0.289884
6.180000 0.305708
6.200000 0.307472
6.220000 0.273094
6.240000 0.246711
6.260000 0.277085
6.280000 0.198596
6.300000 0.181582
6.320000 0.226252
6.340000 0.100082
6.360000 0.132416
6.380000 0.117642
6.400000 0.039097
6.420000 0.050300
6.440000 -0.032880
6.460000 -0.069429
6.480000 -0.069961
6.500000 -0.157818
6.520000 -0.233842
6.540000 -0.217500
6.560000 -0.296227
6.580000 -0.375094
6.600000 -0.423210
6.620000 -0.457756
6.640000 -0.515646
6.660000 -0.620433
6.680000 -0.660063
6.700000 -0.705083
6.720000 -0.758072
6.740000 -0.849878
6.760000 -0.973094
6.780000 -0.896916
6.800000 -1.039792
6.820000 -1.123350
6.840000 -1.141008
6.860000 -1.239662
6.880000 -1.217943
6.900000 -1.333751
6.920000 -1.426887
6.940000 -1.391500
6.960000 -1.466362
6.980000 -1.529784
7.000000 -1.543325
7.020000 -1.604492
7.040000 -1.620736
7.060000 -1.599871
7.080000 -1.696634
7.100000 -1.708621
7.120000 -1.649695
7.140000 -1.694365
7.160000 -1.666639
7.180000 -1.708313
7.200000 -1.658811
7.220000 -1.588962
7.240000 -1.570408
7.260000 -1.580728
7.280000 -1.509213
7.300000 -1.384177
7.320000 -1.401961
7.340000 -1.315868
7.360000 -1.218013
7.380000 -1.120675
7.400000 -0.994197
7.420000 -0.960169
7.440000 -0.843283
7.460000 -0.671125
7.480000 -0.588491
7.500000 -0.489348
7.520000 -0.323996
7.540000 -0.201830
7.560000 -0.061783
7.580000 0.093192
7.600000 0.193667
7.620000 0.395525
7.640000 0.541594
7.660000 0.671755
7.680000 0.831492
7.700000 0.991144
7.720000 1.142451
7.740000 1.297244
7.760000 1.454544
7.780000 1.589508
7.800000 1.776635
7.820000 1.910941
7.840000 2.020084
7.860000 2.168127
7.880000 2.309799
7.900000 2.420496
7.920000 2.524639
7.940000 2.611236
7.960000 2.703938
7.980000 2.826229
8.000000 2.848159
8.020000 2.880520
8.040000 2.966067
8.060000 2.967761
8.080000 3.020554
8.100000 2.994592
8.120000 2.945524
8.140000 2.998625
8.160000 2.939433
8.180000 2.842487
8.200000 2.808473
8.220000 2.722843
8.240000 2.636022
8.260000 2.508395
8.280000 2.326295
8.300000 2.215865
8.320000 2.038876
8.340000 1.804656
8.360000 1.605738
8.380000 1.387412
8.400000 1.132284
8.420000 0.891440
8.440000 0.624480
8.460000 0.297389
8.480000 0.034532
8.500000 -0.254917
8.520000 -0.603111
8.540000 -0.932988
8.560000 -1.240488
8.580000 -1.554626
8.600000 -1.851035
8.620000 -2.234125
8.640000 -2.563652
8.660000 -2.832573
8.680000 -3.144204
8.700000 -3.491557
8.720000 -3.758966
8.740000 -3.999641
8.760000 -4.293712
8.780000 -4.522415
8.800000 -4.744284
8.820000 -4.954825
8.840000 -5.087647
8.860000 -5.291788
8.880000 -5.415662
8.900000 -5.486491
8.920000 -5.644169
8.940000 -5.640374
8.960000 -5.664208
8.980000 -5.738103
9.000000 -5.633176
9.020000 -5.597860
9.040000 -5.535475
9.060000 -5.364564
9.080000 -5.284646
9.100000 -5.070255
9.120000 -4.843540
9.140000 -4.669857
9.160000 -4.370395
9.180000 -4.066984
9.200000 -3.812781
9.220000 -3.454392
9.240000 -3.058209
9.260000 -2.744786
9.280000 -2.332401
9.300000 -1.917397
9.320000 -1.511873
9.340000 -1.081634
9.360000 -0.644141
9.380000 -0.192098
9.400000 0.267156
9.420000 0.734771
9.440000 1.171830
9.460000 1.662102
9.480000 2.097858
9.500000 2.525857
9.520000 3.014505
9.540000 3.405269
9.560000 3.838169
9.580000 4.256071
9.600000 4.669969
9.620000 5.035414
9.640000 5.360503
9.660000 5.730065
9.680000 6.031754
9.700000 6.346536
9.720000 6.557062
9.740000 6.797416
9.760000 7.066827
9.780000 7.168547
9.800000 7.334347
9.820000 7.444456
9.840000 7.447424
9.860000 7.530296
9.880000 7.439092
9.900000 7.328326
9.920000 7.260269
9.940000 7.046732
9.960000 6.848024
9.980000 6.613846
10.000000 6.265932
10.020000 5.979171
10.040000 5.611275
10.060000 5.174440
10.080000 4.811263
10.100000 4.338649
10.120000 3.905483
10.140000 3.433219
10.160000 2.917307
10.180000 2.450043
10.200000 1.891015
10.220000 1.362191
10.240000 0.815556
10.260000 0.208202
10.280000 -0.353417
10.300000 -0.966036
10.320000 -1.556530
10.340000 -2.138440
10.360000 -2.760960
10.380000 -3.290343
10.400000 -3.888833
10.420000 -4.480335
10.440000 -5.030737
10.460000 -5.691570
10.480000 -6.279151
10.500000 -6.835925
10.520000 -7.393357
10.540000 -7.847122
10.560000 -8.335756
10.580000 -8.713133
10.600000 -9.000930
10.620000 -9.291037
10.640000 -9.511408
10.660000 -9.598243
10.680000 -9.629709
10.700000 -9.606253
10.720000 -9.520441
10.740000 -9.342276
10.760000 -9.095172
10.780000 -8.831741
10.800000 -8.543958
10.820000 -8.223463
10.840000 -7.804314
10.860000 -7.442873
10.880000 -7.042475
10.900000 -6.541841
10.920000 -6.064606
10.940000 -5.512607
10.960000 -4.933988
10.980000 -4.361110
11.000000 -3.696623
11.020000 -3.092461
11.040000 -2.470166
11.060000 -1.858177
11.080000 -1.208168
11.100000 -0.610085
11.120000 0.024282
11.140000 0.681292
11.160000 1.297608
11.180000 1.943079
11.200000 2.556819
11.220000 3.158543
11.240000 3.738507
11.260000 4.273659
11.280000 4.784390
11.300000 5.320299
11.320000 5.775926
11.340000 6.249464
11.360000 6.745996
11.380000 7.143439
11.400000 7.523309
11.420000 7.904536
11.440000 8.208129
11.460000 8.473549
11.480000 8.712880
11.500000 8.922721
11.520000 9.124145
11.540000 9.264011
11.560000 9.319674
11.580000 9.415723
11.600000 9.429559
11.620000 9.265341
11.640000 9.171841
11.660000 8.977320
11.680000 8.681513
11.700000 8.365975
11.720000 8.033157
11.740000 7.725727
11.760000 7.354540
11.780000 6.921948
11.800000 6.521942
11.820000 6.071033
11.840000 5.564392
11.860000 5.053003
11.880000 4.519558
11.900000 3.962336
11.920000 3.403266
11.940000 2.832657
11.960000 2.283557
11.980000 1.681846
12.000000 0.994743
12.020000 0.366090
12.040000 -0.348054
12.060000 -1.184279
12.080000 -2.005926
12.100000 -2.769474
12.120000 -3.539589
12.140000 -4.345609
12.160000 -5.060859
12.180000 -5.721313
12.200000 -6.343133
12.220000 -7.002313
12.240000 -7.677486
12.260000 -8.234189
12.280000 -8.771737
12.300000 -9.290127
12.320000 -9.716824
12.340000 -10.068980
12.360000 -10.343540
12.380000 -10.474600
12.400000 -10.548990
12.420000 -10.597900
12.440000 -10.563470
12.460000 -10.450390
12.480000 -10.320960
12.500000 -10.141940
12.520000 -9.910126
12.540000 -9.560924
12.560000 -9.151858
12.580000 -8.778500
12.600000 -8.334103
12.620000 -7.780130
12.640000 -7.236338
12.660000 -6.707318
12.680000 -6.101715
12.700000 -5.493983
12.720000 -4.830615
12.740000 -4.153398
12.760000 -3.465833
12.780000 -2.693660
12.800000 -1.983801
12.820000 -1.272094
12.840000 -0.540376
12.860000 0.134222
12.880000 0.774078
12.900000 1.449390
12.920000 2.118289
12.940000 2.750457
12.960000 3.408895
12.980000 4.001322
13.000000 4.616588
13.020000 5.191244
13.040000 5.660077
13.060000 6.132648
13.080000 6.525429
13.100000 6.916991
13.120000 7.253436
13.140000 7.586142
13.160000 7.930498
13.180000 8.162996
13.200000 8.436552
13.220000 8.616201
13.240000 8.726968
13.260000 8.851822
13.280000 8.871133
13.300000 8.888763
13.320000 8.896577
13.340000 8.793904
13.360000 8.758924
13.380000 8.639517
13.400000 8.436342
13.420000 8.242535
13.440000 7.970982
13.460000 7.607441
13.480000 7.235217
13.500000 6.812036
13.520000 6.448354
13.540000 6.029821
13.560000 5.564224
13.580000 5.238953
13.600000 4.802622
13.620000 4.349165
13.640000 3.898187
13.660000 3.424943
13.680000 2.973139
13.700000 2.432273
13.720000 1.941931
13.740000 1.480618
13.760000 0.991340
13.780000 0.505984
13.800000 -0.050972
13.820000 -0.513279
13.840000 -1.063374
13.860000 -1.685837
13.880000 -2.269428
13.900000 -2.860244
13.920000 -3.529646
13.940000 -4.133780
13.960000 -4.744312
13.980000 -5.352101
14.000000 -5.920497
14.020000 -6.475605
14.040000 -6.994499
14.060000 -7.540743
14.080000 -8.022192
14.100000 -8.396895
14.120000 -8.684510
14.140000 -8.985834
14.160000 -9.239645
14.180000 -9.278476
14.200000 -9.332207
14.220000 -9.372313
14.240000 -9.246829
14.260000 -9.114413
14.280000 -8.908802
14.300000 -8.796214
14.320000 -8.613849
14.340000 -8.245336
14.360000 -8.002728
14.380000 -7.708531
14.400000 -7.341657
14.420000 -6.969363
14.440000 -6.559457
14.460000 -6.118589
14.480000 -5.627869
14.500000 -5.107784
14.520000 -4.593160
14.540000 -3.961356
14.560000 -3.387498
14.580000 -2.845806
14.600000 -2.235469
14.620000 -1.640550
14.640000 -1.034611
14.660000 -0.490748
14.680000 0.079861
14.700000 0.723792
14.720000 1.285579
14.740000 1.812302
14.760000 2.408649
14.780000 2.973769
14.800000 3.473115
14.820000 4.000958
14.840000 4.475126
14.860000 4.917912
14.880000 5.372644
14.900000 5.772580
14.920000 6.146203
14.940000 6.543129
14.960000 6.910031
14.980000 7.239348
15.000000 7.541331
15.020000 7.786600
15.040000 8.043688
15.060000 8.278566
15.080000 8.427422
15.100000 8.586178
15.120000 8.736028
15.140000 8.830005
15.160000 8.835032
15.180000 8.832357
15.200000 8.789983
15.220000 8.670954
15.240000 8.481895
15.260000 8.252254
15.280000 7.982199
15.300000 7.695410
15.320000 7.357607
15.340000 6.980622
15.360000 6.625805
15.380000 6.225757
15.400000 5.832724
15.420000 5.356638
15.440000 4.868984
15.460000 4.427598
15.480000 3.913801
15.500000 3.369868
15.520000 2.823541
15.540000 2.273404
15.560000 1.744273
15.580000 1.095427
15.600000 0.450306
15.620000 -0.163279
15.640000 -0.830708
15.660000 -1.586413
15.680000 -2.397992
15.700000 -3.111744
15.720000 -3.856331
15.740000 -4.594967
15.760000 -5.329401
15.780000 -5.989800
15.800000 -6.565436
15.820000 -7.200265
15.840000 -7.792621
15.860000 -8.290483
15.880000 -8.730497
15.900000 -9.107789
15.920000 -9.490305
15.940000 -9.736583
15.960000 -9.881307
15.980000 -9.997507
16.000000 -10.028030
16.020000 -10.007230
16.040000 -9.958718
16.060000 -9.763567
16.080000 -9.576454
16.100000 -9.383754
16.120000 -9.051818
16.140000 -8.727458
16.160000 -8.313014
16.180000 -7.905236
16.200000 -7.512568
16.220000 -6.954170
16.240000 -6.465970
16.260000 -5.952817
16.280000 -5.383230
16.300000 -4.849492
16.320000 -4.220391
16.340000 -3.646070
16.360000 -3.027892
16.380000 -2.348659
16.400000 -1.775053
16.420000 -1.141022
16.440000 -0.522704
16.460000 0.053801
16.480000 0.640402
16.500000 1.177095
16.520000 1.781032
16.540000 2.345340
16.560000 2.811526
16.580000 3.387862
16.600000 3.920214
16.620000 4.369428
16.640000 4.834592
16.660000 5.208272
16.680000 5.611233
16.700000 6.010455
16.720000 6.288226
16.740000 6.663194
16.760000 7.007116
16.780000 7.263490
16.800000 7.557869
16.820000 7.816707
16.840000 7.962426
16.860000 8.152704
16.880000 8.270850
16.900000 8.381939
16.920000 8.487594
16.940000 8.516805
16.960000 8.553634
16.980000 8.575465
17.000000 8.492299
17.020000 8.352014
17.040000 8.242157
17.060000 7.929168
17.080000 7.698477
17.100000 7.361290
17.120000 7.011569
17.140000 6.663222
17.160000 6.277163
17.180000 5.913369
17.200000 5.522241
17.220000 5.094131
17.240000 4.587069
17.260000 4.228064
17.280000 3.682199
17.300000 3.159285
17.320000 2.670876
17.340000 2.156294
17.360000 1.657200
17.380000 1.085261
17.400000 0.529817
17.420000 -0.063379
17.440000 -0.625544
17.460000 -1.362009
17.480000 -2.014860
17.500000 -2.744478
17.520000 -3.456549
17.540000 -4.150920
17.560000 -4.898083
17.580000 -5.510241
17.600000 -6.203407
17.620000 -6.727217
17.640000 -7.387560
17.660000 -7.989397
17.680000 -8.412424
17.700000 -8.873989
17.720000 -9.243174
17.740000 -9.556751
17.760000 -9.758890
17.780000 -9.842476
17.800000 -9.939827
17.820000 -9.995351
17.840000 -9.858818
17.860000 -9.722845
17.880000 -9.544666
17.900000 -9.293306
17.920000 -9.005621
17.940000 -8.641393
17.960000 -8.302848
17.980000 -7.897002
18.000000 -7.457633
18.020000 -7.076405
18.040000 -6.606004
18.060000 -6.115690
18.080000 -5.577443
18.100000 -5.039629
18.120000 -4.450270
18.140000 -3.775840
18.160000 -3.157577
18.180000 -2.541835
18.200000 -1.887542
18.220000 -1.279600
18.240000 -0.661449
18.260000 -0.115640
18.280000 0.466382
18.300000 1.135533
18.320000 1.626799
18.340000 2.263014
18.360000 2.872384
18.380000 3.376352
18.400000 3.950266
18.420000 4.388697
18.440000 4.884976
18.460000 5.280949
18.480000 5.636075
18.500000 6.075809
18.520000 6.403487
18.540000 6.792711
18.560000 7.131354
18.580000 7.437776
18.600000 7.746172
18.620000 7.933453
18.640000 8.123871
18.660000 8.339355
18.680000 8.425041
18.700000 8.533399
18.720000 8.667846
18.740000 8.693388
18.760000 8.741167
18.780000 8.647093
18.800000 8.591989
18.820000 8.477764
18.840000 8.159790
18.860000 7.937780
18.880000 7.594306
18.900000 7.265871
18.920000 6.950585
18.940000 6.512728
18.960000 6.172376
18.980000 5.804017
19.000000 5.373344
19.020000 4.920965
19.040000 4.409492
19.060000 3.937242
19.080000 3.479220
19.100000 2.909605
19.120000 2.401773
19.140000 1.904010
19.160000 1.402605
19.180000 0.874748
19.200000 0.199156
19.220000 -0.338629
19.240000 -0.958782
19.260000 -1.671792
19.280000 -2.373136
19.300000 -3.093316
19.320000 -3.742078
19.340000 -4.382073
19.360000 -5.035120
19.380000 -5.677735
19.400000 -6.218993
19.420000 -6.796618
19.440000 -7.394029
19.460000 -7.888180
19.480000 -8.348961
19.500000 -8.711032
19.520000 -9.006769
19.540000 -9.283574
19.560000 -9.422935
19.580000 -9.484256
19.600000 -9.569102
19.620000 -9.557073
19.640000 -9.531209
19.660000 -9.464315
19.680000 -9.241914
19.700000 -9.103826
19.720000 -8.847397
19.740000 -8.470860
19.760000 -8.131349
19.780000 -7.733135
19.800000 -7.406604
19.820000 -6.957909
19.840000 -6.476963
19.860000 -6.062799
19.880000 -5.571925
19.900000 -5.055971
19.920000 -4.493120
19.940000 -3.894910
19.960000 -3.320786
19.980000 -2.686840
20.000000 -2.079766
20.020000 -1.480366
20.040000 -0.879481
20.060000 -0.337775
20.080000 0.270153
20.100000 0.862355
20.120000 1.444405
20.140000 2.047110
20.160000 2.595902
20.180000 3.231837
20.200000 3.844358
20.220000 4.269976
20.240000 4.732928
20.260000 5.254217
20.280000 5.684274
20.300000 6.033196
20.320000 6.463520
20.340000 6.900285
20.360000 7.279510
20.380000 7.596896
20.400000 7.853592
20.420000 8.152200
20.440000 8.374335
20.460000 8.449491
20.480000 8.573841
20.500000 8.707125
20.520000 8.773725
20.540000 8.797951
20.560000 8.805065
20.580000 8.764637
20.600000 8.640091
20.620000 8.506051
20.640000 8.269912
20.660000 7.944460
20.680000 7.592723
20.700000 7.276373
20.720000 6.919035
20.740000 6.477117
20.760000 6.091408
20.780000 5.748984
20.800000 5.316140
20.820000 4.827562
20.840000 4.347919
20.860000 3.912372
20.880000 3.428304
20.900000 2.901203
20.920000 2.385235
20.940000 1.947336
20.960000 1.443565
20.980000 0.892351
21.000000 0.348404
21.020000 -0.223214
21.040000 -0.834391
21.060000 -1.472314
21.080000 -2.115334
21.100000 -2.802564
21.120000 -3.453804
21.140000 -4.074377
21.160000 -4.751972
21.180000 -5.392178
21.200000 -6.017569
21.220000 -6.607698
21.240000 -7.188012
21.260000 -7.811106
21.280000 -8.315493
21.300000 -8.665325
21.320000 -9.046749
21.340000 -9.363435
21.360000 -9.530691
21.380000 -9.623309
21.400000 -9.711643
21.420000 -9.752014
21.440000 -9.680681
21.460000 -9.504253
21.480000 -9.324169
21.500000 -9.128808
21.520000 -8.861120
21.540000 -8.473997
21.560000 -8.135802
21.580000 -7.826117
21.600000 -7.413382
21.620000 -7.031062
21.640000 -6.634683
21.660000 -6.182052
21.680000 -5.713710
21.700000 -5.165786
21.720000 -4.596843
21.740000 -4.002022
21.760000 -3.390089
21.780000 -2.789779
21.800000 -2.183391
21.820000 -1.608413
21.840000 -1.011911
21.860000 -0.460683
21.880000 0.159274
21.900000 0.808036
21.920000 1.362668
21.940000 1.993183
21.960000 2.640377
21.980000 3.217974
22.000000 3.788527
22.020000 4.267064
22.040000 4.781785
22.060000 5.300554
22.080000 5.666084
22.100000 6.132872
22.120000 6.573208
22.140000 6.967235
22.160000 7.359945
22.180000 7.659799
22.200000 7.941463
22.220000 8.224681
22.240000 8.348401
22.260000 8.539015
22.280000 8.652288
22.300000 8.711844
22.320000 8.824459
22.340000 8.830383
22.360000 8.802908
22.380000 8.716101
22.400000 8.576264
22.420000 8.384530
22.440000 8.148097
22.460000 7.819256
22.480000 7.421560
22.500000 7.219463
22.520000 6.852533
22.540000 6.397228
22.560000 6.061035
22.580000 5.706442
22.600000 5.320915
22.620000 4.742436
22.640000 4.299594
22.660000 3.931263
22.680000 3.445402
22.700000 2.849965
22.720000 2.354106
22.740000 2.008573
22.760000 1.464570
22.780000 0.782634
22.800000 0.220945
22.820000 -0.207292
22.840000 -0.930412
22.860000 -1.679928
22.880000 -2.263854
22.900000 -2.929560
22.920000 -3.564053
22.940000 -4.360536
22.960000 -4.971167
22.980000 -5.507006
23.000000 -6.238682
23.020000 -6.796408
23.040000 -7.403916
23.060000 -7.872931
23.080000 -8.323013
23.100000 -8.722207
23.120000 -8.964507
23.140000 -9.251954
23.160000 -9.383362
23.180000 -9.446111
23.200000 -9.515595
23.220000 -9.557732
23.240000 -9.511801
23.260000 -9.306301
23.280000 -9.124271
23.300000 -9.031065
23.320000 -8.706103
23.340000 -8.269030
23.360000 -7.994298
23.380000 -7.674195
23.400000 -7.322332
23.420000 -6.873902
23.440000 -6.441100
23.460000 -6.140532
23.480000 -5.614622
23.500000 -5.059612
23.520000 -4.536334
23.540000 -4.043444
23.560000 -3.424579
23.580000 -2.763396
23.600000 -2.233411
23.620000 -1.626099
23.640000 -1.069997
23.660000 -0.427271
23.680000 0.124546
23.700000 0.781934
23.720000 1.453549
23.740000 1.920842
23.760000 2.646636
23.780000 3.269408
23.800000 3.818060
23.820000 4.308682
23.840000 4.780721
23.860000 5.389462
23.880000 5.833102
23.900000 6.144327
23.920000 6.561361
23.940000 7.160285
23.960000 7.447144
23.980000 7.653372
24.000000 7.969036
24.020000 8.307329
24.040000 8.485410
24.060000 8.457333
24.080000 8.667215
24.100000 8.742862
24.120000 8.858277
24.140000 8.829935
24.160000 8.690797
24.180000 8.829388
24.200000 8.658631
24.220000 8.417872
24.240000 8.257071
24.260000 7.881347
24.280000 7.682793
24.300000 7.350017
24.320000 6.847520
24.340000 6.543759
24.360000 6.197204
24.380000 5.780043
24.400000 5.351624
24.420000 4.770471
24.440000 4.437177
24.460000 3.995861
24.480000 3.393464
24.500000 2.931255
24.520000 2.420440
24.540000 2.047376
24.560000 1.426467
24.580000 0.826241
24.600000 0.349398
24.620000 -0.271917
24.640000 -0.826913
24.660000 -1.556222
24.680000 -2.227796
24.700000 -2.734619
24.720000 -3.459322
24.740000 -4.172849
24.760000 -4.819959
24.780000 -5.507510
24.800000 -6.086689
24.820000 -6.737748
24.840000 -7.483133
24.860000 -7.943508
24.880000 -8.411374
24.900000 -8.878960
24.920000 -9.210098
24.940000 -9.497979
24.960000 -9.600106
24.980000 -9.759856
25.000000 -9.847265
25.020000 -9.849296
25.040000 -9.701924
25.060000 -9.473557
25.080000 -9.387115
25.100000 -9.150458
25.120000 -8.832357
25.140000 -8.487006
25.160000 -8.175669
25.180000 -7.905082
25.200000 -7.527271
25.220000 -7.127601
25.240000 -6.768989
25.260000 -6.397144
25.280000 -5.890502
25.300000 -5.329583
25.320000 -4.780217
25.340000 -4.218024
25.360000 -3.633579
25.380000 -3.019952
25.400000 -2.398987
25.420000 -1.813632
25.440000 -1.268901
25.460000 -0.597356
25.480000 0.011665
25.500000 0.663942
25.520000 1.334983
25.540000 1.878258
25.560000 2.628334
25.580000 3.236626
25.600000 3.707839
25.620000 4.319212
25.640000 4.837029
25.660000 5.340548
25.680000 5.847302
25.700000 6.241818
25.720000 6.710287
25.740000 7.165817
25.760000 7.460573
25.780000 7.774165
25.800000 8.078542
25.820000 8.284560
25.840000 8.475635
25.860000 8.644390
25.880000 8.787364
25.900000 8.888749
25.920000 8.971019
25.940000 8.970780
25.960000 8.937270
25.980000 8.869606
26.000000 8.697603
26.020000 8.545498
26.040000 8.291393
26.060000 7.961880
26.080000 7.733751
26.100000 7.394632
26.120000 7.039884
26.140000 6.699701
26.160000 6.315056
26.180000 5.937875
26.200000 5.488633
26.220000 5.029687
26.240000 4.591550
26.260000 4.174628
26.280000 3.654739
26.300000 3.165475
26.320000 2.765175
26.340000 2.200349
26.360000 1.660743
26.380000 1.128433
26.400000 0.481828
26.420000 -0.077481
26.440000 -0.699398
26.460000 -1.430010
26.480000 -2.045108
26.500000 -2.733205
26.520000 -3.457361
26.540000 -4.114007
26.560000 -4.829131
26.580000 -5.513083
26.600000 -6.101981
26.620000 -6.770362
26.640000 -7.383639
26.660000 -7.857219
26.680000 -8.252380
26.700000 -8.656027
26.720000 -8.996659
26.740000 -9.214019
26.760000 -9.365983
26.780000 -9.465897
26.800000 -9.614249
26.820000 -9.619304
26.840000 -9.515483
26.860000 -9.475560
26.880000 -9.319422
26.900000 -9.111864
26.920000 -8.864369
26.940000 -8.539911
26.960000 -8.267349
26.980000 -7.963518
27.000000 -7.597148
27.020000 -7.220808
27.040000 -6.815186
27.060000 -6.355680
27.080000 -5.900668
27.100000 -5.377643
27.120000 -4.800270
27.140000 -4.272049
27.160000 -3.712110
27.180000 -3.103986
27.200000 -2.503270
27.220000 -1.948428
27.240000 -1.312886
27.260000 -0.722014
27.280000 -0.109590
27.300000 0.546803
27.320000 1.141358
27.340000 1.807625
27.360000 2.379676
27.380000 2.940959
27.400000 3.576250
27.420000 4.077878
27.440000 4.609166
27.460000 5.078097
27.480000 5.541146
27.500000 6.022428
27.520000 6.393853
27.540000 6.811938
27.560000 7.182173
27.580000 7.467771
27.600000 7.803068
27.620000 8.003232
27.640000 8.164495
27.660000 8.391027
27.680000 8.464797
27.700000 8.611356
27.720000 8.682507
27.740000 8.645006
27.760000 8.699185
27.780000 8.595672
27.800000 8.451620
27.820000 8.297303
27.840000 8.051389
27.860000 7.827658
27.880000 7.488314
27.900000 7.143579
27.920000 6.849859
27.940000 6.499200
27.960000 6.124806
27.980000 5.713499
28.000000 5.329331
28.020000 4.947123
28.040000 4.489241
28.060000 4.055333
28.080000 3.542376
28.100000 3.143056
28.120000 2.726539
28.140000 2.088518
28.160000 1.670139
28.180000 1.124778
28.200000 0.588688
28.220000 0.025584
28.240000 -0.711049
28.260000 -1.276491
28.280000 -1.878762
28.300000 -2.663258
28.320000 -3.362068
28.340000 -4.066269
28.360000 -4.683482
28.380000 -5.256990
28.400000 -5.943855
28.420000 -6.598456
28.440000 -7.042041
28.460000 -7.339752
28.480000 -8.055646
28.500000 -8.435950
28.520000 -8.565565
28.540000 -8.747077
28.560000 -8.981045
28.580000 -9.329701
28.600000 -9.172863
28.620000 -8.902108
28.640000 -9.040181
28.660000 -9.097791
28.680000 -8.594986
28.700000 -8.339705
28.720000 -8.351342
28.740000 -8.062438
28.760000 -7.692987
28.780000 -7.291147
28.800000 -7.103418
28.820000 -6.777475
28.840000 -6.332476
28.860000 -5.873894
28.880000 -5.438137
28.900000 -5.084636
28.920000 -4.362427
28.940000 -4.008590
28.960000 -3.384306
28.980000 -2.656831
29.000000 -2.430466
29.020000 -1.681146
29.040000 -1.000765
29.060000 -0.545319
29.080000 0.044783
29.100000 0.585747
29.120000 1.265792
29.140000 1.967837
29.160000 2.277998
29.180000 2.867371
29.200000 3.688109
29.220000 4.058232
29.240000 4.489241
29.260000 4.975634
29.280000 5.523852
29.300000 5.955716
29.320000 6.168763
29.340000 6.630594
29.360000 6.953400
29.380000 7.344191
29.400000 7.554186
29.420000 7.732463
29.440000 8.063306
29.460000 8.114097
29.480000 8.301616
29.500000 8.399723
29.520000 8.307385
29.540000 8.426064
29.560000 8.479276
29.580000 8.277978
29.600000 8.184211
29.620000 8.003778
29.640000 7.790703
29.660000 7.667557
29.680000 7.068381
29.700000 6.820788
29.720000 6.617347
29.740000 6.250837
29.760000 5.681306
29.780000 5.275810
29.800000 5.272617
29.820000 4.486202
29.840000 4.272161
29.860000 3.698975
29.880000 3.152382
29.900000 3.118928
29.920000 2.132965
29.940000 1.749567
29.960000 1.360329
29.980000 0.805068
30.000000 0.265742
30.020000 -0.399978
30.040000 -1.003831
30.060000 -1.492997
30.080000 -2.127517
30.100000 -3.076386
30.120000 -3.635274
30.140000 -4.334322
30.160000 -4.764813
30.180000 -5.637587
30.200000 -6.350751
30.220000 -6.434519
30.240000 -7.242625
30.260000 -7.602694
30.280000 -8.163108
30.300000 -8.492243
30.320000 -8.491305
30.340000 -9.109484
30.360000 -9.129621
30.380000 -9.212044
30.400000 -9.231705
30.420000 -9.076786
30.440000 -9.099023
30.460000 -8.920144
30.480000 -8.607687
30.500000 -8.514943
30.520000 -8.208437
30.540000 -7.918175
30.560000 -7.823695
30.580000 -7.151995
30.600000 -6.926849
30.620000 -6.704854
30.640000 -6.150727
30.660000 -5.740932
30.680000 -5.168432
30.700000 -4.926818
30.720000 -4.272217
30.740000 -3.621495
30.760000 -3.194518
30.780000 -2.559493
30.800000 -2.053496
30.820000 -1.299190
30.840000 -0.727167
30.860000 -0.255393
30.880000 0.451721
30.900000 1.080612
30.920000 1.577353
30.940000 2.230134
30.960000 2.818584
30.980000 3.317566
31.000000 3.971565
31.020000 4.499380
31.040000 5.032894
31.060000 5.381718
31.080000 5.867691
31.100000 6.415712
31.120000 6.600893
31.140000 6.924315
31.160000 7.305248
31.180000 7.662124
31.200000 7.854012
31.220000 7.974651
31.240000 8.240463
31.260000 8.409428
31.280000 8.477120
31.300000 8.414749
31.320000 8.527616
31.340000 8.581459
31.360000 8.459111
31.380000 8.359716
31.400000 8.281815
31.420000 8.148643
31.440000 7.878574
31.460000 7.660009
31.480000 7.250523
31.500000 6.894865
31.520000 6.557482
31.540000 6.117679
31.560000 5.708500
31.580000 5.242664
31.600000 4.900352
31.620000 4.478193
31.640000 3.986772
31.660000 3.495380
31.680000 3.057397
31.700000 2.646986
31.720000 1.993309
31.740000 1.451869
31.760000 1.039260
31.780000 0.537631
31.800000 -0.112531
31.820000 -0.689596
31.840000 -1.142409
31.860000 -1.752983
31.880000 -2.451807
31.900000 -3.116337
31.920000 -3.676920
31.940000 -4.352456
31.960000 -5.067706
31.980000 -5.693881
32.000000 -6.271057
32.020000 -6.814094
32.040000 -7.394366
32.060000 -7.868197
32.080000 -8.367277
32.100000 -8.763881
32.120000 -9.014191
32.140000 -9.304173
32.160000 -9.510862
32.180000 -9.596913
32.200000 -9.417754
32.220000 -9.284260
32.240000 -9.318568
32.260000 -9.100872
32.280000 -8.816001
32.300000 -8.640861
32.320000 -8.498839
32.340000 -8.234175
32.360000 -7.822476
32.380000 -7.461078
32.400000 -7.199873
32.420000 -6.721168
32.440000 -6.222368
32.460000 -5.816396
32.480000 -5.305693
32.500000 -4.790314
32.520000 -4.268744
32.540000 -3.767382
32.560000 -3.177056
32.580000 -2.520704
32.600000 -1.960611
32.620000 -1.342643
32.640000 -0.615826
32.660000 0.024324
32.680000 0.581000
32.700000 1.145083
32.720000 1.837102
32.740000 2.425761
32.760000 2.872791
32.780000 3.504342
32.800000 4.158916
32.820000 4.708212
32.840000 5.190880
32.860000 5.666154
32.880000 6.201895
32.900000 6.615820
32.920000 6.863890
32.940000 7.235735
32.960000 7.561692
32.980000 7.783239
33.000000 8.040243
33.020000 8.285064
33.040000 8.448903
33.060000 8.609676
33.080000 8.698149
33.100000 8.737064
33.120000 8.704408
33.140000 8.644026
33.160000 8.607323
33.180000 8.535248
33.200000 8.334944
33.220000 8.142285
33.240000 8.024993
33.260000 7.693239
33.280000 7.263322
33.300000 6.919175
33.320000 6.564386
33.340000 6.125885
33.360000 5.636369
33.380000 5.223508
33.400000 4.875790
33.420000 4.452734
33.440000 3.954103
33.460000 3.508361
33.480000 3.105989
33.500000 2.516601
33.520000 1.953988
33.540000 1.457036
33.560000 0.910975
33.580000 0.364242
33.600000 -0.192280
33.620000 -0.753605
33.640000 -1.307158
33.660000 -1.919651
33.680000 -2.559381
33.700000 -3.195764
33.720000 -3.927020
33.740000 -4.579941
33.760000 -5.233352
33.780000 -5.880728
33.800000 -6.468071
33.820000 -7.001655
33.840000 -7.507821
33.860000 -8.025679
33.880000 -8.490871
33.900000 -8.804196
33.920000 -9.114833
33.940000 -9.401692
33.960000 -9.612387
33.980000 -9.653375
34.000000 -9.631263
34.020000 -9.584324
34.040000 -9.418174
34.060000 -9.202956
34.080000 -9.015115
34.100000 -8.745144
34.120000 -8.476322
34.140000 -8.221152
34.160000 -7.873505
34.180000 -7.524863
34.200000 -7.082216
34.220000 -6.730116
34.240000 -6.301459
34.260000 -5.759416
34.280000 -5.283526
34.300000 -4.805857
34.320000 -4.258494
34.340000 -3.664569
34.360000 -3.068068
34.380000 -2.501967
34.400000 -1.884895
34.420000 -1.203981
34.440000 -0.612633
34.460000 -0.007744
34.480000 0.629689
34.500000 1.250445
34.520000 1.828994
34.540000 2.427512
34.560000 3.051151
34.580000 3.625458
34.600000 4.149814
34.620000 4.732326
34.640000 5.247523
34.660000 5.673562
34.680000 6.097234
34.700000 6.542737
34.720000 6.889334
34.740000 7.180184
34.760000 7.478442
34.780000 7.792593
34.800000 8.025371
34.820000 8.186200
34.840000 8.355178
34.860000 8.534184
34.880000 8.556701
34.900000 8.577314
34.920000 8.640259
34.940000 8.608639
34.960000 8.537488
34.980000 8.424761
35.000000 8.361130
35.020000 8.183497
35.040000 7.895602
35.060000 7.683913
35.080000 7.334837
35.100000 6.924805
35.120000 6.576247
35.140000 6.135631
35.160000 5.743579
35.180000 5.315552
35.200000 4.841300
35.220000 4.470757
35.240000 3.988719
35.260000 3.500337
35.280000 3.070336
35.300000 2.548459
35.320000 2.019762
35.340000 1.496302
35.360000 0.977939
35.380000 0.484376
35.400000 -0.183360
35.420000 -0.673072
35.440000 -1.220491
35.460000 -1.827733
35.480000 -2.486466
35.500000 -3.087182
35.520000 -3.703036
35.540000 -4.370437
35.560000 -5.012617
35.580000 -5.685759
35.600000 -6.190986
35.620000 -6.821278
35.640000 -7.381664
35.660000 -7.834575
35.680000 -8.373369
35.700000 -8.669596
35.720000 -9.044004
35.740000 -9.278350
35.760000 -9.451894
35.780000 -9.632972
35.800000 -9.491636
35.820000 -9.400474
35.840000 -9.292494
35.860000 -9.179585
35.880000 -8.879871
35.900000 -8.710220
35.920000 -8.508557
35.940000 -8.208871
35.960000 -7.928678
35.980000 -7.487908
36.000000 -7.198640
36.020000 -6.743489
36.040000 -6.295647
36.060000 -5.843269
36.080000 -5.305679
36.100000 -4.836637
36.120000 -4.232013
36.140000 -3.763937
36.160000 -3.166665
36.180000 -2.489743
36.200000 -1.955906
36.220000 -1.292679
36.240000 -0.642418
36.260000 0.030345
36.280000 0.617563
36.300000 1.203211
36.320000 1.832200
36.340000 2.446556
36.360000 2.946938
36.380000 3.552640
36.400000 4.130839
36.420000 4.668540
36.440000 5.189914
36.460000 5.629157
36.480000 6.151231
36.500000 6.516396
36.520000 6.844551
36.540000 7.214618
36.560000 7.432791
36.580000 7.720658
36.600000 7.939110
36.620000 8.148475
36.640000 8.349591
36.660000 8.400353
36.680000 8.558689
36.700000 8.625738
36.720000 8.543734
36.740000 8.527042
36.760000 8.502410
36.780000 8.354016
36.800000 8.219738
36.820000 7.987828
36.840000 7.835668
36.860000 7.554102
36.880000 7.124955
36.900000 6.804488
36.920000 6.451267
36.940000 6.012919
36.960000 5.562655
36.980000 5.122655
37.000000 4.796937
37.020000 4.331325
37.040000 3.853404
37.060000 3.456129
37.080000 2.999451
37.100000 2.493733
37.120000 1.946146
37.140000 1.433805
37.160000 0.903175
37.180000 0.394559
37.200000 -0.219559
37.220000 -0.738286
37.240000 -1.292399
37.260000 -1.891309
37.280000 -2.518968
37.300000 -3.164159
37.320000 -3.831167
37.340000 -4.507628
37.360000 -5.129685
37.380000 -5.774764
37.400000 -6.346690
37.420000 -6.868903
37.440000 -7.394295
37.460000 -7.869990
37.480000 -8.275093
37.500000 -8.635456
37.520000 -8.911420
37.540000 -9.157067
37.560000 -9.327726
37.580000 -9.444570
37.600000 -9.388669
37.620000 -9.325920
37.640000 -9.139507
37.660000 -8.993382
37.680000 -8.789339
37.700000 -8.468340
37.720000 -8.249887
37.740000 -8.018930
37.760000 -7.699107
37.780000 -7.285881
37.800000 -6.913882
37.820000 -6.602405
37.840000 -6.163932
37.860000 -5.616274
37.880000 -5.159862
37.900000 -4.713981
37.920000 -4.141117
37.940000 -3.549951
37.960000 -3.006537
37.980000 -2.454230
38.000000 -1.817847
38.020000 -1.165766
38.040000 -0.616078
38.060000 0.036451
38.080000 0.654615
38.100000 1.241174
38.120000 1.834315
38.140000 2.428226
38.160000 3.021926
38.180000 3.531005
38.200000 4.099443
38.220000 4.665516
38.240000 5.136337
38.260000 5.573452
38.280000 6.017499
38.300000 6.453563
38.320000 6.741136
38.340000 7.054070
38.360000 7.385627
38.380000 7.639200
38.400000 7.810364
38.420000 8.037596
38.440000 8.215229
38.460000 8.316403
38.480000 8.388843
38.500000 8.440935
38.520000 8.494204
38.540000 8.409554
38.560000 8.339635
38.580000 8.321570
38.600000 8.130452
38.620000 7.963238
38.640000 7.742209
38.660000 7.532859
38.680000 7.152835
38.700000 6.724753
38.720000 6.426509
38.740000 6.058318
38.760000 5.531904
38.780000 5.107504
38.800000 4.777178
38.820000 4.369176
38.840000 3.875124
38.860000 3.378242
38.880000 2.970324
38.900000 2.571858
38.920000 1.960709
38.940000 1.413430
38.960000 0.932344
38.980000 0.476353
39.000000 -0.102169
39.020000 -0.721761
39.040000 -1.273662
39.060000 -1.781060
39.080000 -2.349513
39.100000 -3.072647
39.120000 -3.795094
39.140000 -4.323665
39.160000 -4.908460
39.180000 -5.662597
39.200000 -6.372456
39.220000 -6.828433
39.240000 -7.202141
39.260000 -7.868477
39.280000 -8.412410
39.300000 -8.710416
39.320000 -8.849777
39.340000 -9.175720
39.360000 -9.590976
39.380000 -9.464427
39.400000 -9.379385
39.420000 -9.248649
39.440000 -9.206597
39.460000 -9.154799
39.480000 -8.640357
39.500000 -8.562960
39.520000 -8.424593
39.540000 -8.051011
39.560000 -7.834967
39.580000 -7.308161
39.600000 -6.976603
39.620000 -6.739134
39.640000 -6.095623
39.660000 -5.669375
39.680000 -5.189844
39.700000 -4.621755
39.720000 -4.300700
39.740000 -3.545442
39.760000 -2.973713
39.780000 -2.554060
39.800000 -1.761441
39.820000 -1.287960
39.840000 -0.467992
39.860000 0.160507
39.880000 0.511487
39.900000 1.402675
39.920000 1.879364
39.940000 2.425369
39.960000 3.054148
39.980000 3.423767
40.000000 4.291514
40.020000 4.711377
40.040000 5.056279
40.060000 5.824182
40.080000 6.035045
40.100000 6.567929
40.120000 6.934019
40.140000 6.926933
40.160000 7.579700
40.180000 7.674447
40.200000 7.810251
40.220000 8.215705
40.240000 8.096228
40.260000 8.520432
40.280000 8.561196
40.300000 8.290903
40.320000 8.588251
40.340000 8.472583
40.360000 8.359183
40.380000 8.264997
40.400000 7.981177
40.420000 8.092937
40.440000 7.769740
40.460000 7.320694
40.480000 7.166909
40.500000 6.675587
40.520000 6.459039
40.540000 5.921968
40.560000 5.356120
40.580000 5.302879
40.600000 4.673918
40.620000 4.291514
40.640000 4.016880
40.660000 3.291043
40.680000 3.113382
40.700000 2.574141
40.720000 1.826865
40.740000 1.539502
40.760000 0.874692
40.780000 0.422594
40.800000 -0.029351
40.820000 -0.862033
40.840000 -1.214456
40.860000 -1.752269
40.880000 -2.517119
40.900000 -3.130312
40.920000 -3.871063
40.940000 -4.402126
40.960000 -5.077243
40.980000 -5.855186
41.000000 -6.310995
41.020000 -6.833755
41.040000 -7.363768
41.060000 -7.906231
41.080000 -8.402916
41.100000 -8.594608
41.120000 -9.003310
41.140000 -9.315151
41.160000 -9.375436
41.180000 -9.607233
41.200000 -9.481777
41.220000 -9.380603
41.240000 -9.362609
41.260000 -9.098085
41.280000 -8.941639
41.300000 -8.676822
41.320000 -8.369154
41.340000 -8.244328
41.360000 -7.853606
41.380000 -7.398356
41.400000 -7.140036
41.420000 -6.739890
41.440000 -6.254015
41.460000 -5.750846
41.480000 -5.286341
41.500000 -4.850934
41.520000 -4.227658
41.540000 -3.622531
41.560000 -3.112066
41.580000 -2.522524
41.600000 -1.806840
41.620000 -1.175863
41.640000 -0.637363
41.660000 0.061181
41.680000 0.684835
41.700000 1.259099
41.720000 1.884195
41.740000 2.486102
41.760000 3.097279
41.780000 3.637878
41.800000 4.216498
41.820000 4.819244
41.840000 5.274368
41.860000 5.707198
41.880000 6.205634
41.900000 6.600333
41.920000 6.876115
41.940000 7.168883
41.960000 7.571312
41.980000 7.842865
42.000000 7.974791
42.020000 8.211672
42.040000 8.405465
42.060000 8.517365
42.080000 8.544308
42.100000 8.531509
42.120000 8.651868
42.140000 8.576502
42.160000 8.447671
42.180000 8.442405
42.200000 8.282921
42.220000 8.114573
42.240000 7.875899
42.260000 7.595664
42.280000 7.266879
42.300000 6.847492
42.320000 6.483587
42.340000 6.090484
42.360000 5.642488
42.380000 5.205947
42.400000 4.820393
42.420000 4.437583
42.440000 3.900568
42.460000 3.444268
42.480000 3.040523
42.500000 2.505706
42.520000 1.962362
42.540000 1.446506
42.560000 0.936657
42.580000 0.446063
42.600000 -0.152805
42.620000 -0.734575
42.640000 -1.218279
42.660000 -1.866201
42.680000 -2.517217
42.700000 -3.121028
42.720000 -3.781399
42.740000 -4.454205
42.760000 -5.105249
42.780000 -5.717448
42.800000 -6.352935
42.820000 -6.906782
42.840000 -7.414908
42.860000 -7.969204
42.880000 -8.410114
42.900000 -8.819194
42.920000 -9.117466
42.940000 -9.319730
42.960000 -9.600246
42.980000 -9.663919
43.000000 -9.485054
43.020000 -9.426646
43.040000 -9.345833
43.060000 -9.144814
43.080000 -8.928350
43.100000 -8.654780
43.120000 -8.505197
43.140000 -8.238334
43.160000 -7.797985
43.180000 -7.498957
43.200000 -7.111035
43.220000 -6.611297
43.240000 -6.193325
43.260000 -5.727937
43.280000 -5.192490
43.300000 -4.681157
43.320000 -4.158860
43.340000 -3.628986
43.360000 -3.047679
43.380000 -2.368557
43.400000 -1.800959
43.420000 -1.213896
43.440000 -0.469575
43.460000 0.155563
43.480000 0.686095
43.500000 1.300829
43.520000 1.944325
43.540000 2.471300
43.560000 3.006719
43.580000 3.597409
43.600000 4.191614
43.620000 4.725898
43.640000 5.211465
43.660000 5.697382
43.680000 6.163582
43.700000 6.532066
43.720000 6.823686
43.740000 7.159025
43.760000 7.437678
43.780000 7.651831
43.800000 7.942079
43.820000 8.114601
43.840000 8.252562
43.860000 8.434732
43.880000 8.484724
43.900000 8.550595
43.920000 8.499343
43.940000 8.475453
43.960000 8.483155
43.980000 8.341609
44.000000 8.151177
44.020000 8.066653
44.040000 7.886052
44.060000 7.551329
44.080000 7.175731
44.100000 6.833097
44.120000 6.508429
44.140000 6.077069
44.160000 5.595451
44.180000 5.219951
44.200000 4.900366
44.220000 4.446559
44.240000 3.954677
44.260000 3.547431
44.280000 3.091943
44.300000 2.571970
44.320000 2.025307
44.340000 1.454040
44.360000 0.944639
44.380000 0.437381
44.400000 -0.132990
44.420000 -0.745413
44.440000 -1.283338
44.460000 -1.905564
44.480000 -2.538628
44.500000 -3.242465
44.520000 -4.012875
44.540000 -4.560798
44.560000 -5.269215
44.580000 -5.955338
44.600000 -6.487171
44.620000 -6.993967
44.640000 -7.473975
44.660000 -8.063950
44.680000 -8.457445
44.700000 -8.712166
44.720000 -9.070666
44.740000 -9.363043
44.760000 -9.499422
44.780000 -9.503427
44.800000 -9.524964
44.820000 -9.459302
44.840000 -9.262751
44.860000 -9.027550
44.880000 -8.882559
44.900000 -8.625457
44.920000 -8.331163
44.940000 -8.096732
44.960000 -7.742181
44.980000 -7.404994
45.000000 -6.964364
45.020000 -6.589788
45.040000 -6.208504
45.060000 -5.640990
45.080000 -5.189171
45.100000 -4.718336
45.120000 -4.095873
45.140000 -3.558773
45.160000 -2.989747
45.180000 -2.392391
45.200000 -1.770166
45.220000 -1.108520
45.240000 -0.547294
45.260000 0.058548
45.280000 0.736381
45.300000 1.297034
45.320000 1.851987
45.340000 2.455518
45.360000 3.075503
45.380000 3.621915
45.400000 4.114553
45.420000 4.746161
45.440000 5.207040
45.460000 5.643735
45.480000 6.042621
45.500000 6.441604
45.520000 6.877123
45.540000 7.013908
45.560000 7.376861
45.580000 7.715533
45.600000 7.900083
45.620000 8.098777
45.640000 8.116757
45.660000 8.424565
45.680000 8.533791
45.700000 8.342155
45.720000 8.406865
45.740000 8.549153
45.760000 8.510084
45.780000 8.207653
45.800000 8.101984
45.820000 8.154286
45.840000 7.941897
45.860000 7.444890
45.880000 7.125613
45.900000 6.947070
45.920000 6.612165
45.940000 6.012877
45.960000 5.485903
45.980000 5.437241
46.000000 4.911093
46.020000 4.339363
46.040000 3.965165
46.060000 3.502326
46.080000 3.208549
46.100000 2.513660
46.120000 1.984893
46.140000 1.606004
46.160000 0.980950
46.180000 0.551172
46.200000 -0.091470
46.220000 -0.696387
46.240000 -1.144859
46.260000 -1.762534
46.280000 -2.378486
46.300000 -3.131643
46.320000 -3.772087
46.340000 -4.222519
46.360000 -4.980199
46.380000 -5.815402
46.400000 -6.280636
46.420000 -6.752395
46.440000 -7.259989
46.460000 -8.032793
46.480000 -8.493826
46.500000 -8.492537
46.520000 -9.054815
46.540000 -9.416942
46.560000 -9.501788
46.580000 -9.571693
46.600000 -9.393626
46.620000 -9.518298
46.640000 -9.339993
46.660000 -9.019274
46.680000 -8.932719
46.700000 -8.686694
46.720000 -8.483785
46.740000 -8.214151
46.760000 -7.824969
46.780000 -7.490611
46.800000 -7.103614
46.820000 -6.753473
46.840000 -6.298364
46.860000 -5.665790
46.880000 -5.295471
46.900000 -4.854379
46.920000 -4.213375
46.940000 -3.643494
46.960000 -3.066233
46.980000 -2.639565
47.000000 -1.878117
47.020000 -1.123126
47.040000 -0.679107
47.060000 0.006974
47.080000 0.645513
47.100000 1.279572
47.120000 1.880414
47.140000 2.344290
47.160000 2.989019
47.180000 3.608261
47.200000 4.114119
47.220000 4.692248
47.240000 5.191370
47.260000 5.654531
47.280000 6.170667
47.300000 6.572914
47.320000 6.860627
47.340000 7.136522
47.360000 7.521810
47.380000 7.823807
47.400000 7.908163
47.420000 8.143462
47.440000 8.404162
47.460000 8.551814
47.480000 8.546941
47.500000 8.521847
47.520000 8.640819
47.540000 8.625261
47.560000 8.434157
47.580000 8.312314
47.600000 8.276634
47.620000 8.104252
47.640000 7.786502
47.660000 7.503690
47.680000 7.169682
47.700000 6.845280
47.720000 6.398194
47.740000 5.979353
47.760000 5.608278
47.780000 5.137765
47.800000 4.774224
47.820000 4.365227
47.840000 3.866904
47.860000 3.464993
47.880000 3.031603
47.900000 2.507681
47.920000 1.955318
47.940000 1.414130
47.960000 0.959567
47.980000 0.478019
48.000000 -0.217472
48.020000 -0.736339
48.040000 -1.174126
48.060000 -1.835631
48.080000 -2.514584
48.100000 -3.182573
48.120000 -3.719798
48.140000 -4.417208
48.160000 -5.215848
48.180000 -5.766656
48.200000 -6.279109
48.220000 -6.830856
48.240000 -7.478974
48.260000 -7.923553
48.280000 -8.233265
48.300000 -8.735342
48.320000 -9.041231
48.340000 -9.273267
48.360000 -9.442386
48.380000 -9.557970
48.400000 -9.613731
48.420000 -9.415317
48.440000 -9.322587
48.460000 -9.239309
48.480000 -8.964983
48.500000 -8.610152
48.520000 -8.470104
48.540000 -8.218114
48.560000 -7.827028
48.580000 -7.420034
48.600000 -7.095772
48.620000 -6.774058
48.640000 -6.193157
48.660000 -5.744657
48.680000 -5.317708
48.700000 -4.802342
48.720000 -4.212815
48.740000 -3.565215
48.760000 -3.131279
48.780000 -2.453138
48.800000 -1.778890
48.820000 -1.272122
48.840000 -0.576603
48.860000 0.053353
48.880000 0.627953
48.900000 1.265932
48.920000 1.839496
48.940000 2.467015
48.960000 3.070406
48.980000 3.522211
49.000000 4.195184
49.020000 4.767670
49.040000 5.146209
49.060000 5.659979
49.080000 6.117090
49.100000 6.518357
49.120000 6.823154
49.140000 7.113052
49.160000 7.535673
49.180000 7.751073
49.200000 7.933691
49.220000 8.181691
49.240000 8.388605
49.260000 8.502326
49.280000 8.512408
49.300000 8.607127
49.320000 8.671725
49.340000 8.589651
49.360000 8.535290
49.380000 8.490101
49.400000 8.332773
49.420000 8.142215
49.440000 7.914745
49.460000 7.663174
49.480000 7.333423
49.500000 6.857126
49.520000 6.521928
49.540000 6.156090
49.560000 5.630558
49.580000 5.227709
49.600000 4.804975
49.620000 4.381583
49.640000 3.912667
49.660000 3.405003
49.680000 2.997407
49.700000 2.471790
49.720000 1.940390
49.740000 1.403263
49.760000 0.909337
49.780000 0.381228
49.800000 -0.235145
49.820000 -0.720809
49.840000 -1.282204
49.860000 -1.912090
49.880000 -2.504754
49.900000 -3.108243
49.920000 -3.740383
49.940000 -4.413539
49.960000 -5.035428
49.980000 -5.633484
50.000000 -6.215884
50.020000 -6.817903
50.040000 -7.295376
50.060000 -7.795226
50.080000 -8.297233
50.100000 -8.614129
50.120000 -8.961706
50.140000 -9.190829
50.160000 -9.455493
50.180000 -9.541726
50.200000 -9.428270
50.220000 -9.393346
50.240000 -9.277734
50.260000 -9.108308
50.280000 -8.882041
50.300000 -8.678978
50.320000 -8.538104
50.340000 -8.203172
50.360000 -7.879246
50.380000 -7.580288
50.400000 -7.192367
50.420000 -6.770446
50.440000 -6.339380
50.460000 -5.853435
50.480000 -5.358248
50.500000 -4.815856
50.520000 -4.299426
50.540000 -3.785964
50.560000 -3.147089
50.580000 -2.586506
50.600000 -1.960065
50.620000 -1.306458
50.640000 -0.681124
50.660000 0.009872
50.680000 0.567402
50.700000 1.200383
50.720000 1.852743
50.740000 2.374859
50.760000 2.980476
50.780000 3.570802
50.800000 4.134816
50.820000 4.690736
50.840000 5.224278
50.860000 5.749600
50.880000 6.165990
50.900000 6.572410
50.920000 6.976099
50.940000 7.264302
50.960000 7.547968
50.980000 7.813290
51.000000 8.057999
51.020000 8.306601
51.040000 8.421106
51.060000 8.572945
51.080000 8.704520
51.100000 8.695824
51.120000 8.702840
51.140000 8.632935
51.160000 8.574681
51.180000 8.466015
51.200000 8.273427
51.220000 8.142089
51.240000 7.891821
51.260000 7.565921
51.280000 7.256838
51.300000 6.852799
51.320000 6.443201
51.340000 6.009012
51.360000 5.598042
51.380000 5.185236
51.400000 4.732200
51.420000 4.344474
51.440000 3.923127
51.460000 3.438709
51.480000 2.990377
51.500000 2.464746
51.520000 1.982541
51.540000 1.444811
51.560000 0.864456
51.580000 0.394979
51.600000 -0.183332
51.620000 -0.774736
51.640000 -1.295367
51.660000 -1.882487
51.680000 -2.529442
51.700000 -3.164635
51.720000 -3.839345
51.740000 -4.469903
51.760000 -5.145733
51.780000 -5.790868
51.800000 -6.345163
51.820000 -6.882767
51.840000 -7.447340
51.860000 -7.930834
51.880000 -8.371800
51.900000 -8.715989
51.920000 -9.023433
51.940000 -9.319646
51.960000 -9.497083
51.980000 -9.567226
52.000000 -9.579927
52.020000 -9.477618
52.040000 -9.351546
52.060000 -9.154001
52.080000 -8.914991
52.100000 -8.696370
52.120000 -8.438372
52.140000 -8.177924
52.160000 -7.838930
52.180000 -7.445002
52.200000 -7.112548
52.220000 -6.687924
52.240000 -6.258468
52.260000 -5.790546
52.280000 -5.286621
52.300000 -4.822563
52.320000 -4.248789
52.340000 -3.661950
52.360000 -3.161288
52.380000 -2.546666
52.400000 -1.911081
52.420000 -1.310533
52.440000 -0.700252
52.460000 -0.069835
52.480000 0.565596
52.500000 1.171606
52.520000 1.745310
52.540000 2.402418
52.560000 2.981233
52.580000 3.553158
52.600000 4.117508
52.620000 4.673217
52.640000 5.250450
52.660000 5.659699
52.680000 6.161215
52.700000 6.588682
52.720000 6.926765
52.740000 7.278404
52.760000 7.588004
52.780000 7.871628
52.800000 8.089899
52.820000 8.294768
52.840000 8.512954
52.860000 8.573757
52.880000 8.656657
52.900000 8.717320
52.920000 8.707503
52.940000 8.687240
52.960000 8.566433
52.980000 8.477834
53.000000 8.394010
53.020000 8.108327
53.040000 7.886710
53.060000 7.653960
53.080000 7.285013
53.100000 6.887934
53.120000 6.462441
53.140000 6.090806
53.160000 5.671783
53.180000 5.179957
53.200000 4.773860
53.220000 4.341674
53.240000 3.868584
53.260000 3.436356
53.280000 2.939993
53.300000 2.477840
53.320000 1.954618
53.340000 1.403963
53.360000 0.947692
53.380000 0.382754
53.400000 -0.213859
53.420000 -0.708038
53.440000 -1.276575
53.460000 -1.853710
53.480000 -2.489462
53.500000 -3.092251
53.520000 -3.680449
53.540000 -4.379945
53.560000 -5.021649
53.580000 -5.629843
53.600000 -6.251635
53.620000 -6.824639
53.640000 -7.371120
53.660000 -7.899719
53.680000 -8.340671
53.700000 -8.735608
53.720000 -9.072179
53.740000 -9.321243
53.760000 -9.536713
53.780000 -9.634316
53.800000 -9.537609
53.820000 -9.419364
53.840000 -9.330555
53.860000 -9.193364
53.880000 -8.930815
53.900000 -8.718384
53.920000 -8.501346
53.940000 -8.234105
53.960000 -7.902002
53.980000 -7.529946
54.000000 -7.177915
54.020000 -6.704098
54.040000 -6.288086
54.060000 -5.806818
54.080000 -5.297683
54.100000 -4.787597
54.120000 -4.255651
54.140000 -3.771331
54.160000 -3.178036
54.180000 -2.548543
54.200000 -1.940432
54.220000 -1.354224
54.240000 -0.647992
54.260000 0.028175
54.280000 0.590284
54.300000 1.184979
54.320000 1.806672
54.340000 2.413340
54.360000 2.950579
54.380000 3.515489
54.400000 4.126750
54.420000 4.691912
54.440000 5.229697
54.460000 5.720165
54.480000 6.185371
54.500000 6.608483
54.520000 6.985845
54.540000 7.273656
54.560000 7.591729
54.580000 7.835107
54.600000 8.073935
54.620000 8.352070
54.640000 8.442728
54.660000 8.616257
54.680000 8.728130
54.700000 8.722389
54.720000 8.729713
54.740000 8.620990
54.760000 8.570522
54.780000 8.474179
54.800000 8.282837
54.820000 8.082085
54.840000 7.867511
54.860000 7.585077
54.880000 7.192703
54.900000 6.773386
54.920000 6.350989
54.940000 6.000442
54.960000 5.502987
54.980000 5.061419
55.000000 4.690301
55.020000 4.273071
55.040000 3.885556
55.060000 3.384614
55.080000 2.939573
55.100000 2.472392
55.120000 1.947924
55.140000 1.395043
55.160000 0.877479
55.180000 0.377839
55.200000 -0.156067
55.220000 -0.698180
55.240000 -1.308138
55.260000 -1.819681
55.280000 -2.456400
55.300000 -3.122751
55.320000 -3.780993
55.340000 -4.493148
55.360000 -5.068070
55.380000 -5.739826
55.400000 -6.387846
55.420000 -6.846260
55.440000 -7.383289
55.460000 -7.923777
55.480000 -8.331667
55.500000 -8.761738
55.520000 -9.029581
55.540000 -9.313009
55.560000 -9.592404
55.580000 -9.576538
55.600000 -9.595163
55.620000 -9.520175
55.640000 -9.312435
55.660000 -9.168144
55.680000 -8.909096
55.700000 -8.690601
55.720000 -8.450149
55.740000 -8.172757
55.760000 -7.871432
55.780000 -7.467463
55.800000 -7.048888
55.820000 -6.670714
55.840000 -6.242505
55.860000 -5.725346
55.880000 -5.221351
55.900000 -4.723293
55.920000 -4.248047
55.940000 -3.660452
55.960000 -3.074649
55.980000 -2.549915
56.000000 -1.869715
56.020000 -1.273382
56.040000 -0.660259
56.060000 -0.017378
56.080000 0.583184
56.100000 1.197638
56.120000 1.770053
56.140000 2.355030
56.160000 2.972355
56.180000 3.538273
56.200000 4.066101
56.220000 4.659970
56.240000 5.251164
56.260000 5.673982
56.280000 6.130842
56.300000 6.587954
56.320000 6.937870
56.340000 7.235805
56.360000 7.527608
56.380000 7.836452
56.400000 8.087154
56.420000 8.268064
56.440000 8.457067
56.460000 8.608765
56.480000 8.652792
56.500000 8.703988
56.520000 8.695012
56.540000 8.651308
56.560000 8.561602
56.580000 8.436720
56.600000 8.340097
56.620000 8.128478
56.640000 7.857905
56.660000 7.649059
56.680000 7.273642
56.700000 6.826319
56.720000 6.443005
56.740000 6.064928
56.760000 5.599960
56.780000 5.136575
56.800000 4.740980
56.820000 4.351994
56.840000 3.884506
56.860000 3.422255
56.880000 2.986582
56.900000 2.493033
56.920000 1.975385
56.940000 1.412660
56.960000 0.922066
56.980000 0.415074
57.000000 -0.148114
57.020000 -0.692704
57.040000 -1.225687
57.060000 -1.800161
57.080000 -2.433099
57.100000 -3.027164
57.120000 -3.697799
57.140000 -4.363281
57.160000 -4.976754
57.180000 -5.636621
57.200000 -6.239326
57.220000 -6.825801
57.240000 -7.340509
57.260000 -7.819004
57.280000 -8.352504
57.300000 -8.739501
57.320000 -9.028222
57.340000 -9.335260
57.360000 -9.525986
57.380000 -9.657295
57.400000 -9.580487
57.420000 -9.385084
57.440000 -9.348675
57.460000 -9.179767
57.480000 -8.955769
57.500000 -8.714183
57.520000 -8.447629
57.540000 -8.289937
57.560000 -7.904830
57.580000 -7.521712
57.600000 -7.168085
57.620000 -6.662073
57.640000 -6.289374
57.660000 -5.773420
57.680000 -5.224740
57.700000 -4.799486
57.720000 -4.273981
57.740000 -3.750424
57.760000 -3.221264
57.780000 -2.562728
57.800000 -1.997958
57.820000 -1.386207
57.840000 -0.664614
57.860000 -0.052233
57.880000 0.561451
57.900000 1.142801
57.920000 1.733715
57.940000 2.354932
57.960000 2.864935
57.980000 3.485074
58.000000 4.064407
58.020000 4.681871
58.040000 5.230019
58.060000 5.705462
58.080000 6.237253
58.100000 6.627121
58.120000 7.009175
58.140000 7.334879
58.160000 7.602834
58.180000 7.915459
58.200000 8.145114
58.220000 8.358203
58.240000 8.567007
58.260000 8.677718
58.280000 8.769370
58.300000 8.813943
58.320000 8.755507
58.340000 8.660662
58.360000 8.592704
58.380000 8.477414
58.400000 8.297933
58.420000 8.100723
58.440000 7.872510
58.460000 7.601853
58.480000 7.216943
58.500000 6.793425
58.520000 6.384653
58.540000 6.004629
58.560000 5.536511
58.580000 5.073476
58.600000 4.708142
58.620000 4.331437
58.640000 3.886060
58.660000 3.436860
58.680000 2.972985
58.700000 2.470894
58.720000 1.979432
58.740000 1.394497
58.760000 0.844081
58.780000 0.395329
58.800000 -0.190082
58.820000 -0.728805
58.840000 -1.286699
58.860000 -1.905746
58.880000 -2.448713
58.900000 -3.118914
58.920000 -3.892222
58.940000 -4.523045
58.960000 -5.151964
58.980000 -5.780141
59.000000 -6.378701
59.020000 -6.973508
59.040000 -7.378458
59.060000 -7.881739
59.080000 -8.365639
59.100000 -8.734992
59.120000 -9.054857
59.140000 -9.260846
59.160000 -9.515595
59.180000 -9.634134
59.200000 -9.541600
59.220000 -9.425344
59.240000 -9.282747
59.260000 -9.144968
59.280000 -8.946751
59.300000 -8.612028
59.320000 -8.451942
59.340000 -8.231347
59.360000 -7.864220
59.380000 -7.487894
59.400000 -7.082735
59.420000 -6.723618
59.440000 -6.278661
59.460000 -5.725150
59.480000 -5.267548
59.500000 -4.783410
59.520000 -4.265453
59.540000 -3.676542
59.560000 -3.135382
59.580000 -2.547632
59.600000 -1.890300
59.620000 -1.326371
59.640000 -0.659012
59.660000 0.015838
59.680000 0.579459
59.700000 1.174952
59.720000 1.771020
59.740000 2.383639
59.760000 2.979118
59.780000 3.478142
59.800000 4.111836
59.820000 4.732116
59.840000 5.198540
59.860000 5.695281
59.880000 6.178019
59.900000 6.608623
59.920000 6.947770
59.940000 7.191863
59.960000 7.576157
59.980000 7.853410
60.000000 8.071330
60.020000 8.301728
60.040000 8.448791
60.060000 8.660998
60.080000 8.682059
60.100000 8.702854
60.120000 8.729334
60.140000 8.639251
60.160000 8.626536
60.180000 8.468914
60.200000 8.281549
60.220000 8.175319
60.240000 7.925723
60.260000 7.627340
60.280000 7.225247
60.300000 6.845630
60.320000 6.492787
60.340000 6.041584
60.360000 5.551326
60.380000 5.142414
60.400000 4.779685
60.420000 4.371291
60.440000 3.845534
60.460000 3.421120
60.480000 3.041433
60.500000 2.496660
60.520000 1.981112
60.540000 1.405980
60.560000 0.928759
60.580000 0.462195
60.600000 -0.174146
60.620000 -0.699650
60.640000 -1.227367
60.660000 -1.806574
60.680000 -2.392867
60.700000 -3.099729
60.720000 -3.722879
60.740000 -4.350874
60.760000 -5.012505
60.780000 -5.676012
60.800000 -6.318795
60.820000 -6.830562
60.840000 -7.312446
60.860000 -7.896848
60.880000 -8.372571
60.900000 -8.718608
60.920000 -9.026248
60.940000 -9.301008
60.960000 -9.578793
60.980000 -9.578148
61.000000 -9.417166
61.020000 -9.394060
61.040000 -9.295799
61.060000 -9.107719
61.080000 -8.886158
61.100000 -8.683781
61.120000 -8.513851
61.140000 -8.230633
61.160000 -7.898347
61.180000 -7.594502
61.200000 -7.170998
61.220000 -6.710147
61.240000 -6.305786
61.260000 -5.854107
61.280000 -5.340814
61.300000 -4.823796
61.320000 -4.370381
61.340000 -3.893174
61.360000 -3.252338
61.380000 -2.635195
61.400000 -2.061436
61.420000 -1.410993
61.440000 -0.709354
61.460000 -0.052233
61.480000 0.552363
61.500000 1.114178
61.520000 1.782446
61.540000 2.369482
61.560000 2.903514
61.580000 3.545470
61.600000 4.143932
61.620000 4.745685
61.640000 5.313955
61.660000 5.803919
61.680000 6.261185
61.700000 6.690388
61.720000 7.047894
61.740000 7.352734
61.760000 7.643359
61.780000 7.879162
61.800000 8.183539
61.820000 8.405409
61.840000 8.494806
61.860000 8.684944
61.880000 8.765435
61.900000 8.756837
61.920000 8.677410
61.940000 8.594888
61.960000 8.574891
61.980000 8.436776
62.000000 8.179646
62.020000 8.047987
62.040000 7.907281
62.060000 7.517259
62.080000 7.094539
62.100000 6.740436
62.120000 6.400981
62.140000 5.946389
62.160000 5.440378
62.180000 5.102056
62.200000 4.762265
62.220000 4.367678
62.240000 3.893832
62.260000 3.480845
62.280000 3.077870
62.300000 2.516769
62.320000 2.009399
62.340000 1.454810
62.360000 0.909841
62.380000 0.428447
62.400000 -0.096273
62.420000 -0.700840
62.440000 -1.267081
62.460000 -1.869267
62.480000 -2.477756
62.500000 -3.154678
62.520000 -3.996617
62.540000 -4.595961
62.560000 -5.217234
62.580000 -5.908118
62.600000 -6.528985
62.620000 -7.052935
62.640000 -7.460938
62.660000 -8.004408
62.680000 -8.469082
62.700000 -8.803202
62.720000 -9.064953
62.740000 -9.300070
62.760000 -9.542972
62.780000 -9.568206
62.800000 -9.476442
62.820000 -9.354039
62.840000 -9.206793
62.860000 -9.036512
62.880000 -8.802838
62.900000 -8.562750
62.920000 -8.360598
62.940000 -8.131573
62.960000 -7.806359
62.980000 -7.420048
63.000000 -6.984347
63.020000 -6.704476
63.040000 -6.234159
63.060000 -5.688573
63.080000 -5.272631
63.100000 -4.766298
63.120000 -4.327908
63.140000 -3.709072
63.160000 -3.121630
63.180000 -2.626597
63.200000 -1.956088
63.220000 -1.324172
63.240000 -0.667667
63.260000 -0.047443
63.280000 0.504975
63.300000 1.161159
63.320000 1.790078
63.340000 2.329208
63.360000 2.915151
63.380000 3.527336
63.400000 4.137967
63.420000 4.726220
63.440000 5.196145
63.460000 5.723050
63.480000 6.193535
63.500000 6.609533
63.520000 6.925673
63.540000 7.195686
63.560000 7.590707
63.580000 7.847108
63.600000 8.089199
63.620000 8.313406
63.640000 8.450093
63.660000 8.648521
63.680000 8.720204
63.700000 8.648031
63.720000 8.636884
63.740000 8.664051
63.760000 8.593390
63.780000 8.397707
63.800000 8.251021
63.820000 8.148545
63.840000 7.969246
63.860000 7.580568
63.880000 7.167441
63.900000 6.844957
63.920000 6.523972
63.940000 6.021167
63.960000 5.515128
63.980000 5.206634
64.000000 4.841692
64.020000 4.399830
64.040000 3.905749
64.060000 3.497775
64.080000 3.082519
64.100000 2.503340
64.120000 2.002033
64.140000 1.435835
64.160000 0.912193
64.180000 0.463315
64.200000 -0.147287
64.220000 -0.722154
64.240000 -1.250529
64.260000 -1.822440
64.280000 -2.453446
64.300000 -3.156191
64.320000 -3.853586
64.340000 -4.433480
64.360000 -5.094117
64.380000 -5.830638
64.400000 -6.388014
64.420000 -6.891169
64.440000 -7.406226
64.460000 -7.971934
64.480000 -8.421891
64.500000 -8.742414
64.520000 -9.078760
64.540000 -9.322811
64.560000 -9.551724
64.580000 -9.586466
64.600000 -9.434586
64.620000 -9.375646
64.640000 -9.253116
64.660000 -9.113069
64.680000 -8.860406
64.700000 -8.621116
64.720000 -8.489611
64.740000 -8.258527
64.760000 -7.836256
64.780000 -7.498873
64.800000 -7.164724
64.820000 -6.697922
64.840000 -6.261521
64.860000 -5.750580
64.880000 -5.288679
64.900000 -4.829635
64.920000 -4.296765
64.940000 -3.733830
64.960000 -3.240771
64.980000 -2.573035
65.000000 -1.911263
65.020000 -1.377133
65.040000 -0.627001
65.060000 0.014059
65.080000 0.554939
65.100000 1.195159
65.120000 1.788230
65.140000 2.385389
65.160000 2.937654
65.180000 3.505435
65.200000 4.171043
65.220000 4.761159
65.240000 5.233688
65.260000 5.744125
65.280000 6.266604
65.300000 6.656304
65.320000 6.931694
65.340000 7.276681
65.360000 7.625183
65.380000 7.830178
65.400000 8.100807
65.420000 8.303310
65.440000 8.506275
65.460000 8.638439
65.480000 8.631871
65.500000 8.738927
65.520000 8.686162
65.540000 8.564291
65.560000 8.543552
65.580000 8.412340
65.600000 8.223281
65.620000 8.105218
65.640000 7.851785
65.660000 7.525409
65.680000 7.161924
65.700000 6.778876
65.720000 6.406792
65.740000 5.944947
65.760000 5.484348
65.780000 5.171121
65.800000 4.780175
65.820000 4.293530
65.840000 3.894868
65.860000 3.541381
65.880000 3.034683
65.900000 2.432217
65.920000 1.950417
65.940000 1.464458
65.960000 0.917319
65.980000 0.301927
66.000000 -0.205905
66.020000 -0.685017
66.040000 -1.292497
66.060000 -1.974349
66.080000 -2.567307
66.100000 -3.202598
66.120000 -3.957029
66.140000 -4.613255
66.160000 -5.290206
66.180000 -5.896355
66.200000 -6.453773
66.220000 -7.004442
66.240000 -7.457885
66.260000 -8.022248
66.280000 -8.425419
66.300000 -8.698163
66.320000 -9.058231
66.340000 -9.350692
66.360000 -9.524768
66.380000 -9.493750
66.400000 -9.462901
66.420000 -9.428452
66.440000 -9.236928
66.460000 -8.989377
66.480000 -8.843532
66.500000 -8.657707
66.520000 -8.393142
66.540000 -8.112388
66.560000 -7.781853
66.580000 -7.489098
66.600000 -7.040654
66.620000 -6.626883
66.640000 -6.269853
66.660000 -5.706078
66.680000 -5.285038
66.700000 -4.797525
66.720000 -4.221973
66.740000 -3.725806
66.760000 -3.122289
66.780000 -2.546050
66.800000 -1.892331
66.820000 -1.252825
66.840000 -0.651157
66.860000 -0.006904
66.880000 0.619509
66.900000 1.222928
66.920000 1.790933
66.940000 2.379466
66.960000 3.001678
66.980000 3.591065
67.000000 4.124383
67.020000 4.731863
67.040000 5.255435
67.060000 5.726004
67.080000 6.183732
67.100000 6.512784
67.120000 6.930784
67.140000 7.193809
67.160000 7.503494
67.180000 7.840093
67.200000 7.981471
67.220000 8.294306
67.240000 8.434255
67.260000 8.526496
67.280000 8.628608
67.300000 8.637430
67.320000 8.655761
67.340000 8.592185
67.360000 8.501500
67.380000 8.443694
67.400000 8.320884
67.420000 8.123283
67.440000 7.900545
67.460000 7.606040
67.480000 7.311886
67.500000 6.860389
67.520000 6.432558
67.540000 6.116488
67.560000 5.598882
67.580000 5.236335
67.600000 4.802861
67.620000 4.323259
67.640000 3.991379
67.660000 3.473507
67.680000 2.976752
67.700000 2.485429
67.720000 1.929202
67.740000 1.471684
67.760000 0.926001
67.780000 0.320271
67.800000 -0.158112
67.820000 -0.694833
67.840000 -1.275945
67.860000 -1.910913
67.880000 -2.556763
67.900000 -3.135480
67.920000 -3.806339
67.940000 -4.530159
67.960000 -5.164315
67.980000 -5.740232
68.000000 -6.333302
68.020000 -6.912566
68.040000 -7.433743
68.060000 -7.920388
68.080000 -8.355613
68.100000 -8.726422
68.120000 -9.061004
68.140000 -9.320038
68.160000 -9.473529
68.180000 -9.540073
68.200000 -9.443016
68.220000 -9.326816
68.240000 -9.239099
68.260000 -9.057573
68.280000 -8.818214
68.300000 -8.672999
68.320000 -8.455919
68.340000 -8.150099
68.360000 -7.867413
68.380000 -7.500609
68.400000 -7.136802
68.420000 -6.737734
68.440000 -6.257012
68.460000 -5.814590
68.480000 -5.356624
68.500000 -4.817144
68.520000 -4.353563
68.540000 -3.792154
68.560000 -3.198943
68.580000 -2.654982
68.600000 -1.947658
68.620000 -1.337097
68.640000 -0.681936
68.660000 0.012575
68.680000 0.555696
68.700000 1.201195
68.720000 1.820774
68.740000 2.380796
68.760000 2.952274
68.780000 3.592508
68.800000 4.189079
68.820000 4.731149
68.840000 5.291536
68.860000 5.763043
68.880000 6.251299
68.900000 6.648504
68.920000 6.940390
68.940000 7.300487
68.960000 7.620450
68.980000 7.814999
69.000000 8.068460
69.020000 8.293172
69.040000 8.450695
69.060000 8.577244
69.080000 8.605769
69.100000 8.662006
69.120000 8.652064
69.140000 8.524031
69.160000 8.501710
69.180000 8.385846
69.200000 8.223155
69.220000 8.061192
69.240000 7.810223
69.260000 7.524807
69.280000 7.160299
69.300000 6.764592
69.320000 6.408262
69.340000 5.969845
69.360000 5.532604
69.380000 5.177073
69.400000 4.768426
69.420000 4.379021
69.440000 3.871007
69.460000 3.505883
69.480000 3.059595
69.500000 2.450211
69.520000 1.956676
69.540000 1.447122
69.560000 0.927625
69.580000 0.390204
69.600000 -0.218789
69.620000 -0.721607
69.640000 -1.242617
69.660000 -1.931946
69.680000 -2.579798
69.700000 -3.205637
69.720000 -3.936402
69.740000 -4.569200
69.760000 -5.259608
69.780000 -5.881918
69.800000 -6.406638
69.820000 -6.928894
69.840000 -7.413298
69.860000 -7.985756
69.880000 -8.369504
69.900000 -8.644936
69.920000 -8.994138
69.940000 -9.294538
69.960000 -9.459148
69.980000 -9.442204
70.000000 -9.400418
70.020000 -9.391232
70.040000 -9.271993
70.060000 -8.983033
70.080000 -8.825552
70.100000 -8.689509
70.120000 -8.416121
70.140000 -8.172869
70.160000 -7.818850
70.180000 -7.515341
70.200000 -7.167595
70.220000 -6.717233
70.240000 -6.333807
70.260000 -5.836421
70.280000 -5.393691
70.300000 -4.894863
70.320000 -4.328945
70.340000 -3.756445
70.360000 -3.196282
70.380000 -2.599053
70.400000 -1.925295
70.420000 -1.284039
70.440000 -0.658984
70.460000 -0.056532
70.480000 0.618837
70.500000 1.239242
70.520000 1.818239
70.540000 2.408817
70.560000 3.025357
70.580000 3.674483
70.600000 4.167850
70.620000 4.744116
70.640000 5.330395
70.660000 5.749264
70.680000 6.169323
70.700000 6.580056
70.720000 6.967837
70.740000 7.246938
70.760000 7.584475
70.780000 7.851225
70.800000 8.093722
70.820000 8.326850
70.840000 8.454140
70.860000 8.599887
70.880000 8.644628
70.900000 8.660088
70.920000 8.656475
70.940000 8.666529
70.960000 8.518990
70.980000 8.399625
71.000000 8.367193
71.020000 8.114923
71.040000 7.855216
71.060000 7.591631
71.080000 7.245958
71.100000 6.858569
71.120000 6.414270
71.140000 6.003495
71.160000 5.646101
71.180000 5.199058
71.200000 4.722845
71.220000 4.360620
71.240000 3.892936
71.260000 3.414847
71.280000 2.970954
71.300000 2.413928
71.320000 1.932899
71.340000 1.393391
71.360000 0.865590
71.380000 0.364550
71.400000 -0.226631
71.420000 -0.778993
71.440000 -1.290088
71.460000 -1.882655
71.480000 -2.548039
71.500000 -3.186676
71.520000 -3.745606
71.540000 -4.433298
71.560000 -5.134320
71.580000 -5.686865
71.600000 -6.287595
71.620000 -6.841036
71.640000 -7.352005
71.660000 -7.937346
71.680000 -8.288172
71.700000 -8.688613
71.720000 -9.042450
71.740000 -9.206443
71.760000 -9.502516
71.780000 -9.537861
71.800000 -9.411410
71.820000 -9.385812
71.840000 -9.247781
71.860000 -9.095452
71.880000 -8.907429
71.900000 -8.640959
71.920000 -8.532041
71.940000 -8.254928
71.960000 -7.857149
71.980000 -7.570682
72.000000 -7.202757
72.020000 -6.792095
72.040000 -6.320895
72.060000 -5.850018
72.080000 -5.438613
72.100000 -4.855485
72.120000 -4.331395
72.140000 -3.804981
72.160000 -3.246596
72.180000 -2.632353
72.200000 -1.920002
72.220000 -1.374374
72.240000 -0.687145
72.260000 0.015250
72.280000 0.602467
72.300000 1.231218
72.320000 1.806350
72.340000 2.440577
72.360000 3.045186
72.380000 3.573337
72.400000 4.196053
72.420000 4.788717
72.440000 5.258698
72.460000 5.785155
72.480000 6.254449
72.500000 6.630216
72.520000 6.972108
72.540000 7.301215
72.560000 7.629692
72.580000 7.820838
72.600000 8.043422
72.620000 8.308617
72.640000 8.457907
72.660000 8.570088
72.680000 8.575703
72.700000 8.692071
72.720000 8.711480
72.740000 8.536900
72.760000 8.473605
72.780000 8.397917
72.800000 8.276410
72.820000 8.057131
72.840000 7.743721
72.860000 7.535435
72.880000 7.231478
72.900000 6.755952
72.920000 6.350050
72.940000 5.999154
72.960000 5.576463
72.980000 5.197741
73.000000 4.702792
73.020000 4.325934
73.040000 3.966986
73.060000 3.447601
73.080000 2.987842
73.100000 2.477055
73.120000 1.963440
73.140000 1.438272
73.160000 0.878039
73.180000 0.341318
73.200000 -0.210036
73.220000 -0.747304
73.240000 -1.305506
73.260000 -1.933445
73.280000 -2.597610
73.300000 -3.216867
73.320000 -3.888959
73.340000 -4.584464
73.360000 -5.255995
73.380000 -5.871836
73.400000 -6.398824
73.420000 -6.941371
73.440000 -7.496716
73.460000 -7.959583
73.480000 -8.353120
73.500000 -8.695572
73.520000 -8.993228
73.540000 -9.304607
73.560000 -9.430623
73.580000 -9.423047
73.600000 -9.515077
73.620000 -9.360270
73.640000 -9.206653
73.660000 -9.062489
73.680000 -8.802194
73.700000 -8.668798
73.720000 -8.387022
73.740000 -8.107585
73.760000 -7.874359
73.780000 -7.473429
73.800000 -7.093643
73.820000 -6.758235
73.840000 -6.293169
73.860000 -5.813932
73.880000 -5.325088
73.900000 -4.857922
73.920000 -4.321411
73.940000 -3.678908
73.960000 -3.205062
73.980000 -2.587710
74.000000 -1.883635
74.020000 -1.345429
74.040000 -0.649938
74.060000 -0.057316
74.080000 0.582358
74.100000 1.231764
74.120000 1.755826
74.140000 2.421602
74.160000 3.005108
74.180000 3.521735
74.200000 4.141173
74.220000 4.714527
74.240000 5.182772
74.260000 5.687635
74.280000 6.147856
74.300000 6.562299
74.320000 6.881632
74.340000 7.159893
74.360000 7.553878
74.380000 7.795968
74.400000 7.989971
74.420000 8.238965
74.440000 8.428094
74.460000 8.533315
74.480000 8.599089
74.500000 8.650537
74.520000 8.641099
74.540000 8.637654
74.560000 8.516189
74.580000 8.456591
74.600000 8.312930
74.620000 8.088008
74.640000 7.918105
74.660000 7.641609
74.680000 7.269638
74.700000 6.838446
74.720000 6.514898
74.740000 6.132858
74.760000 5.605267
74.780000 5.186791
74.800000 4.840236
74.820000 4.423313
74.840000 3.901870
74.860000 3.414091
74.880000 3.056053
74.900000 2.566159
74.920000 1.924357
74.940000 1.432376
74.960000 0.956262
74.980000 0.422131
75.000000 -0.192070
75.020000 -0.777257
75.040000 -1.246846
75.060000 -1.862924
75.080000 -2.547800
75.100000 -3.110386
75.120000 -3.778318
75.140000 -4.477002
75.160000 -5.062973
75.180000 -5.698628
75.200000 -6.334115
75.220000 -6.891533
75.240000 -7.400569
75.260000 -7.875983
75.280000 -8.398953
75.300000 -8.798483
75.320000 -9.015815
75.340000 -9.265495
75.360000 -9.538505
75.380000 -9.680821
75.400000 -9.482197
75.420000 -9.350440
75.440000 -9.331255
75.460000 -9.179081
75.480000 -8.923071
75.500000 -8.658001
75.520000 -8.516385
75.540000 -8.290119
75.560000 -7.936170
75.580000 -7.553122
75.600000 -7.227123
75.620000 -6.816839
75.640000 -6.381124
75.660000 -5.897490
75.680000 -5.354775
75.700000 -4.936383
75.720000 -4.377578
75.740000 -3.824711
75.760000 -3.267573
75.780000 -2.576339
75.800000 -2.028360
75.820000 -1.361127
75.840000 -0.657990
75.860000 0.016314
75.880000 0.569923
75.900000 1.232786
75.920000 1.889936
75.940000 2.426741
75.960000 3.048155
75.980000 3.602758
76.000000 4.209804
76.020000 4.792022
76.040000 5.277435
76.060000 5.792282
76.080000 6.272780
76.100000 6.650087
76.120000 7.006682
76.140000 7.333703
76.160000 7.579336
76.180000 7.854208
76.200000 8.111016
76.220000 8.264339
76.240000 8.449379
76.260000 8.574779
76.280000 8.670492
76.300000 8.679664
76.320000 8.619226
76.340000 8.622811
76.360000 8.542291
76.380000 8.371478
76.400000 8.237648
76.420000 8.065379
76.440000 7.825921
76.460000 7.558905
76.480000 7.136732
76.500000 6.779576
76.520000 6.438594
76.540000 5.978527
76.560000 5.524748
76.580000 5.102575
76.600000 4.756355
76.620000 4.352750
76.640000 3.847131
76.660000 3.388815
76.680000 2.970716
76.700000 2.516419
76.720000 1.893479
76.740000 1.312704
76.760000 0.893625
76.780000 0.348768
76.800000 -0.258222
76.820000 -0.798878
76.840000 -1.400001
76.860000 -1.899010
76.880000 -2.523043
76.900000 -3.335952
76.920000 -3.874157
76.940000 -4.550058
76.960000 -5.186903
76.980000 -5.802729
77.000000 -6.506944
77.020000 -6.854914
77.040000 -7.362662
77.060000 -7.988220
77.080000 -8.324063
77.100000 -8.647667
77.120000 -8.934708
77.140000 -9.204497
77.160000 -9.454415
77.180000 -9.449724
77.200000 -9.394984
77.220000 -9.372817
77.240000 -9.221651
77.260000 -9.035028
77.280000 -8.805625
77.300000 -8.618428
77.320000 -8.408867
77.340000 -8.150981
77.360000 -7.886206
77.380000 -7.419936
77.400000 -7.161153
77.420000 -6.816223
77.440000 -6.297608
77.460000 -5.869021
77.480000 -5.387179
77.500000 -4.890396
77.520000 -4.389369
77.540000 -3.770350
77.560000 -3.203368
77.580000 -2.686504
77.600000 -1.994135
77.620000 -1.314230
77.640000 -0.768477
77.660000 -0.089482
77.680000 0.582526
77.700000 1.126417
77.720000 1.786101
77.740000 2.393833
77.760000 2.922489
77.780000 3.578756
77.800000 4.153917
77.820000 4.627160
77.840000 5.244933
77.860000 5.676068
77.880000 6.121221
77.900000 6.604856
77.920000 6.838474
77.940000 7.211370
77.960000 7.602680
77.980000 7.770314
78.000000 8.042245
78.020000 8.277544
78.040000 8.445626
78.060000 8.592466
78.080000 8.650986
78.100000 8.652806
78.120000 8.748869
78.140000 8.692226
78.160000 8.532111
78.180000 8.539141
78.200000 8.359001
78.220000 8.172309
78.240000 7.984201
78.260000 7.656565
78.280000 7.303260
78.300000 6.959141
78.320000 6.524210
78.340000 6.071636
78.360000 5.716020
78.380000 5.203973
78.400000 4.810912
78.420000 4.411536
78.440000 3.864901
78.460000 3.446957
78.480000 3.007503
78.500000 2.435970
78.520000 1.925099
78.540000 1.408277
78.560000 0.837093
78.580000 0.328211
78.600000 -0.228913
78.620000 -0.817082
78.640000 -1.343665
78.660000 -1.940334
78.680000 -2.560193
78.700000 -3.164257
78.720000 -3.784662
78.740000 -4.478865
78.760000 -5.057260
78.780000 -5.662065
78.800000 -6.335851
78.820000 -6.795946
78.840000 -7.375293
78.860000 -7.870550
78.880000 -8.240309
78.900000 -8.723565
78.920000 -8.973973
78.940000 -9.189289
78.960000 -9.485810
78.980000 -9.514629
79.000000 -9.457846
79.020000 -9.394886
79.040000 -9.195506
79.060000 -9.130447
79.080000 -8.965263
79.100000 -8.680043
79.120000 -8.504762
79.140000 -8.247969
79.160000 -7.966837
79.180000 -7.645530
79.200000 -7.210795
79.220000 -6.839104
79.240000 -6.424674
79.260000 -5.950282
79.280000 -5.422650
79.300000 -4.916470
79.320000 -4.439375
79.340000 -3.858207
79.360000 -3.306713
79.380000 -2.670736
79.400000 -1.990522
79.420000 -1.434813
79.440000 -0.734631
79.460000 -0.029729
79.480000 0.567976
79.500000 1.210605
79.520000 1.802905
79.540000 2.376455
79.560000 3.047006
79.580000 3.568940
79.600000 4.108448
79.620000 4.787989
79.640000 5.279409
79.660000 5.753115
79.680000 6.232730
79.700000 6.643897
79.720000 7.055246
79.740000 7.314322
79.760000 7.614288
79.780000 7.892619
79.800000 8.125971
79.820000 8.326794
79.840000 8.475061
79.860000 8.629588
79.880000 8.691805
79.900000 8.731911
79.920000 8.713693
79.940000 8.646477
79.960000 8.574387
79.980000 8.450891
80.000000 8.274673
80.020000 8.131083
80.040000 7.849223
80.060000 7.548108
80.080000 7.273839
80.100000 6.756148
80.120000 6.424408
80.140000 6.008872
80.160000 5.541944
80.180000 5.162607
80.200000 4.677040
80.220000 4.301848
80.240000 3.894490
80.260000 3.399681
80.280000 2.888684
80.300000 2.432105
80.320000 1.942337
80.340000 1.328583
80.360000 0.790952
80.380000 0.302123
80.400000 -0.260701
80.420000 -0.789804
80.440000 -1.388406
80.460000 -2.017787
80.480000 -2.533391
80.500000 -3.207233
80.520000 -3.971971
80.540000 -4.514811
80.560000 -5.224866
80.580000 -5.792716
80.600000 -6.317367
80.620000 -6.980916
80.640000 -7.342945
80.660000 -7.842277
80.680000 -8.283145
80.700000 -8.613120
80.720000 -8.953990
80.740000 -9.172835
80.760000 -9.328342
80.780000 -9.458434
80.800000 -9.458322
80.820000 -9.312785
80.840000 -9.179543
80.860000 -9.064561
80.880000 -8.874087
80.900000 -8.640273
80.920000 -8.453104
80.940000 -8.220998
80.960000 -7.929168
80.980000 -7.605046
81.000000 -7.175171
81.020000 -6.855558
81.040000 -6.418583
81.060000 -5.894549
81.080000 -5.476899
81.100000 -4.897355
81.120000 -4.420135
81.140000 -3.870853
81.160000 -3.261272
81.180000 -2.674881
81.200000 -2.001361
81.220000 -1.422364
81.240000 -0.736339
81.260000 -0.038635
81.280000 0.546607
81.300000 1.159941
81.320000 1.789798
81.340000 2.428828
81.360000 3.005262
81.380000 3.548173
81.400000 4.159518
81.420000 4.776436
81.440000 5.225790
81.460000 5.751477
81.480000 6.228963
81.500000 6.596062
81.520000 7.008237
81.540000 7.227067
81.560000 7.608449
81.580000 7.867791
81.600000 8.059805
81.620000 8.356733
81.640000 8.473717
81.660000 8.581823
81.680000 8.726548
81.700000 8.730567
81.720000 8.698653
81.740000 8.680421
81.760000 8.578546
81.780000 8.519228
81.800000 8.349157
81.820000 8.120664
81.840000 7.993584
81.860000 7.706683
81.880000 7.264330
81.900000 6.910675
81.920000 6.552497
81.940000 6.111125
81.960000 5.643931
81.980000 5.191454
82.000000 4.786281
82.020000 4.428299
82.040000 3.867814
82.060000 3.417143
82.080000 2.997939
82.100000 2.438924
82.120000 1.927241
82.140000 1.368423
82.160000 0.809030
82.180000 0.314894
82.200000 -0.235341
82.220000 -0.823118
82.240000 -1.387622
82.260000 -1.925799
82.280000 -2.556651
82.300000 -3.183721
82.320000 -3.852144
82.340000 -4.514853
82.360000 -5.082774
82.380000 -5.716650
82.400000 -6.384009
82.420000 -6.881002
82.440000 -7.347300
82.460000 -7.921088
82.480000 -8.339299
82.500000 -8.726184
82.520000 -9.016165
82.540000 -9.234436
82.560000 -9.522933
82.580000 -9.556555
82.600000 -9.409156
82.620000 -9.331213
82.640000 -9.259964
82.660000 -9.077808
82.680000 -8.896899
82.700000 -8.690769
82.720000 -8.491361
82.740000 -8.274057
82.760000 -7.933173
82.780000 -7.604864
82.800000 -7.214100
82.820000 -6.789000
82.840000 -6.386641
82.860000 -5.869105
82.880000 -5.371005
82.900000 -4.885494
82.920000 -4.422809
82.940000 -3.818564
82.960000 -3.241093
82.980000 -2.659995
83.000000 -2.030362
83.020000 -1.362682
83.040000 -0.657808
83.060000 -0.052989
83.080000 0.577107
83.100000 1.193101
83.120000 1.858583
83.140000 2.377856
83.160000 2.912294
83.180000 3.617630
83.200000 4.143288
83.220000 4.715942
83.240000 5.278779
83.260000 5.737011
83.280000 6.248624
83.300000 6.629348
83.320000 6.954380
83.340000 7.287884
83.360000 7.591365
83.380000 7.820922
83.400000 8.081427
83.420000 8.305453
83.440000 8.434508
83.460000 8.619772
83.480000 8.672985
83.500000 8.677270
83.520000 8.661208
83.540000 8.624113
83.560000 8.537992
83.580000 8.439661
83.600000 8.252338
83.620000 8.102670
83.640000 7.947344
83.660000 7.559913
83.680000 7.212378
83.700000 6.839300
83.720000 6.419969
83.740000 6.029317
83.760000 5.522382
83.780000 5.125652
83.800000 4.756887
83.820000 4.371809
83.840000 3.845590
83.860000 3.390999
83.880000 3.063376
83.900000 2.341615
83.920000 1.925869
83.940000 1.365510
83.960000 0.768505
83.980000 0.389055
84.000000 -0.370949
84.020000 -0.789622
84.040000 -1.246734
84.060000 -2.077637
84.080000 -2.600285
84.100000 -3.173471
84.120000 -3.986030
84.140000 -4.599112
84.160000 -5.230873
84.180000 -5.873614
84.200000 -6.330768
84.220000 -7.007747
84.240000 -7.352705
84.260000 -7.886150
84.280000 -8.399065
84.300000 -8.514509
84.320000 -9.129817
84.340000 -9.126596
84.360000 -9.442652
84.380000 -9.617736
84.400000 -9.159238
84.420000 -9.563879
84.440000 -9.158426
84.460000 -8.872799
84.480000 -9.025604
84.500000 -8.511064
84.520000 -8.498755
84.540000 -8.288410
84.560000 -7.743035
84.580000 -7.681294
84.600000 -7.231030
84.620000 -6.641292
84.640000 -6.531646
84.660000 -5.704719
84.680000 -5.414163
84.700000 -5.004173
84.720000 -4.130405
84.740000 -4.018140
84.760000 -3.104504
84.780000 -2.622158
84.800000 -2.094329
84.820000 -1.164492
84.840000 -0.861739
84.860000 0.035457
84.880000 0.585607
84.900000 1.081564
84.920000 1.883383
84.940000 2.280406
84.960000 2.953436
84.980000 3.596849
85.000000 4.020086
85.020000 4.768888
85.040000 5.251640
85.060000 5.607396
85.080000 6.294079
85.100000 6.482200
85.120000 6.937744
85.140000 7.304534
85.160000 7.399197
85.180000 7.973153
85.200000 7.996832
85.220000 8.254018
85.240000 8.551674
85.260000 8.520376
85.280000 8.743982
85.300000 8.696441
85.320000 8.677606
85.340000 8.707517
85.360000 8.567792
85.380000 8.473017
85.400000 8.390173
85.420000 8.172070
85.440000 7.978656
85.460000 7.686630
85.480000 7.320736
85.500000 6.940376
85.520000 6.460425
85.540000 6.128615
85.560000 5.627659
85.580000 5.155395
85.600000 4.829481
85.620000 4.317518
85.640000 3.929205
85.660000 3.410926
85.680000 2.903640
85.700000 2.467141
85.720000 1.853149
85.740000 1.302047
85.760000 0.804970
85.780000 0.292124
85.800000 -0.331418
85.820000 -0.800586
85.840000 -1.385395
85.860000 -1.981378
85.880000 -2.543613
85.900000 -3.252758
85.920000 -3.824025
85.940000 -4.478431
85.960000 -5.147805
85.980000 -5.719717
86.000000 -6.270805
86.020000 -6.826683
86.040000 -7.333773
86.060000 -7.789456
86.080000 -8.287822
86.100000 -8.603388
86.120000 -8.929723
86.140000 -9.213627
86.160000 -9.393206
86.180000 -9.484088
86.200000 -9.382213
86.220000 -9.258228
86.240000 -9.205239
86.260000 -9.107411
86.280000 -8.851234
86.300000 -8.691553
86.320000 -8.556659
86.340000 -8.281521
86.360000 -8.011522
86.380000 -7.619582
86.400000 -7.272928
86.420000 -6.894655
86.440000 -6.364950
86.460000 -5.913341
86.480000 -5.467236
86.500000 -4.951996
86.520000 -4.436056
86.540000 -3.935156
86.560000 -3.322047
86.580000 -2.743469
86.600000 -2.082048
86.620000 -1.387398
86.640000 -0.765466
86.660000 -0.039938
86.680000 0.525770
86.700000 1.139286
86.720000 1.816419
86.740000 2.324853
86.760000 2.947316
86.780000 3.541969
86.800000 4.172527
86.820000 4.766690
86.840000 5.253041
86.860000 5.805376
86.880000 6.263986
86.900000 6.656122
86.920000 7.001893
86.940000 7.288332
86.960000 7.613028
86.980000 7.850175
87.000000 8.084353
87.020000 8.328082
87.040000 8.485228
87.060000 8.595966
87.080000 8.713553
87.100000 8.671809
87.120000 8.676108
87.140000 8.639279
87.160000 8.491627
87.180000 8.462010
87.200000 8.250671
87.220000 8.106899
87.240000 7.927558
87.260000 7.520018
87.280000 7.213078
87.300000 6.838880
87.320000 6.359951
87.340000 5.986397
87.360000 5.499164
87.380000 5.127193
87.400000 4.739999
87.420000 4.278490
87.440000 3.880067
87.460000 3.468158
87.480000 2.931269
87.500000 2.407319
87.520000 1.895076
87.540000 1.364586
87.560000 0.810193
87.580000 0.273360
87.600000 -0.226126
87.620000 -0.802449
87.640000 -1.322002
87.660000 -1.962194
87.680000 -2.616361
87.700000 -3.204390
87.720000 -3.966804
87.740000 -4.591718
87.760000 -5.203819
87.780000 -5.928899
87.800000 -6.356086
87.820000 -6.877795
87.840000 -7.431656
87.860000 -7.892843
87.880000 -8.312748
87.900000 -8.635050
87.920000 -8.958514
87.940000 -9.276964
87.960000 -9.417978
87.980000 -9.437793
88.000000 -9.410710
88.020000 -9.306609
88.040000 -9.168088
88.060000 -8.995973
88.080000 -8.842748
88.100000 -8.669666
88.120000 -8.466295
88.140000 -8.244090
88.160000 -7.921508
88.180000 -7.583495
88.200000 -7.214856
88.220000 -6.770432
88.240000 -6.395127
88.260000 -5.843787
88.280000 -5.343643
88.300000 -4.932840
88.320000 -4.360018
88.340000 -3.807473
88.360000 -3.227734
88.380000 -2.621696
88.400000 -2.002915
88.420000 -1.336369
88.440000 -0.657248
88.460000 -0.044853
88.480000 0.550472
88.500000 1.187233
88.520000 1.789560
88.540000 2.335944
88.560000 2.936296
88.580000 3.514341
88.600000 4.115183
88.620000 4.704641
88.640000 5.203077
88.660000 5.702325
88.680000 6.175050
88.700000 6.534125
88.720000 6.909317
88.740000 7.171292
88.760000 7.494504
88.780000 7.799525
88.800000 8.033087
88.820000 8.277040
88.840000 8.432589
88.860000 8.588222
88.880000 8.652652
88.900000 8.669974
88.920000 8.646308
88.940000 8.629490
88.960000 8.553886
88.980000 8.424257
89.000000 8.313252
89.020000 8.187740
89.040000 7.948801
89.060000 7.643611
89.080000 7.308889
89.100000 6.896616
89.120000 6.498206
89.140000 6.062463
89.160000 5.600786
89.180000 5.238771
89.200000 4.784460
89.220000 4.356125
89.240000 3.946261
89.260000 3.423403
89.280000 2.977998
89.300000 2.428240
89.320000 1.891547
89.340000 1.354182
89.360000 0.836659
89.380000 0.330059
89.400000 -0.210723
89.420000 -0.785589
89.440000 -1.306010
89.460000 -1.872628
89.480000 -2.505440
89.500000 -3.192739
89.520000 -3.792518
89.540000 -4.420471
89.560000 -5.105711
89.580000 -5.720403
89.600000 -6.251089
89.620000 -6.786857
89.640000 -7.283095
89.660000 -7.852514
89.680000 -8.264115
89.700000 -8.609312
89.720000 -9.012595
89.740000 -9.246997
89.760000 -9.469244
89.780000 -9.501970
89.800000 -9.425260
89.820000 -9.324141
89.840000 -9.217282
89.860000 -9.127996
89.880000 -8.932495
89.900000 -8.737862
89.920000 -8.570732
89.940000 -8.349927
89.960000 -8.025903
89.980000 -7.650963
90.000000 -7.253968
90.020000 -6.868973
90.040000 -6.419171
90.060000 -5.891846
90.080000 -5.472894
90.100000 -4.959152
90.120000 -4.469552
90.140000 -3.918982
90.160000 -3.304654
90.180000 -2.742643
90.200000 -2.046704
90.220000 -1.352305
90.240000 -0.717210
90.260000 -0.024002
90.280000 0.594555
90.300000 1.180358
90.320000 1.818071
90.340000 2.394058
90.360000 2.975057
90.380000 3.613527
90.400000 4.188547
90.420000 4.794038
90.440000 5.353025
90.460000 5.827753
90.480000 6.270777
90.500000 6.713172
90.520000 7.020238
90.540000 7.309785
90.560000 7.622298
90.580000 7.886318
90.600000 8.118101
90.620000 8.355851
90.640000 8.466365
90.660000 8.650692
90.680000 8.705067
90.700000 8.648535
90.720000 8.632347
90.740000 8.638088
90.760000 8.454700
90.780000 8.382583
90.800000 8.246414
90.820000 8.050829
90.840000 7.872861
90.860000 7.468541
90.880000 7.127993
90.900000 6.784603
90.920000 6.313012
90.940000 5.866794
90.960000 5.520659
90.980000 5.095307
91.000000 4.693970
91.020000 4.318624
91.040000 3.872603
91.060000 3.441677
91.080000 2.950243
91.100000 2.415287
91.120000 1.886267
91.140000 1.380298
91.160000 0.838732
91.180000 0.307472
91.200000 -0.158224
91.220000 -0.774414
91.240000 -1.318403
91.260000 -1.850657
91.280000 -2.600523
91.300000 -3.209572
91.320000 -3.901478
91.340000 -4.599308
91.360000 -5.172843
91.380000 -5.858070
91.400000 -6.365342
91.420000 -6.843977
91.440000 -7.371582
91.460000 -7.844336
91.480000 -8.279658
91.500000 -8.637682
91.520000 -8.923883
91.540000 -9.224269
91.560000 -9.424462
91.580000 -9.434558
91.600000 -9.385644
91.620000 -9.240359
91.640000 -9.204119
91.660000 -8.992920
91.680000 -8.795752
91.700000 -8.714939
91.720000 -8.444156
91.740000 -8.286450
91.760000 -7.936912
91.780000 -7.528574
91.800000 -7.275113
91.820000 -6.759495
91.840000 -6.345933
91.860000 -5.948350
91.880000 -5.338041
91.900000 -4.929241
91.920000 -4.452622
91.940000 -3.786986
91.960000 -3.282389
91.980000 -2.623041
92.000000 -1.958959
92.020000 -1.393853
92.040000 -0.633554
92.060000 0.000728
92.080000 0.505578
92.100000 1.199220
92.120000 1.802737
92.140000 2.357817
92.160000 2.948871
92.180000 3.571937
92.200000 4.156199
92.220000 4.736667
92.240000 5.260098
92.260000 5.727363
92.280000 6.211571
92.300000 6.550677
92.320000 6.882739
92.340000 7.216033
92.360000 7.525857
92.380000 7.787972
92.400000 8.075517
92.420000 8.293606
92.440000 8.434424
92.460000 8.601484
92.480000 8.632249
92.500000 8.660354
92.520000 8.657063
92.540000 8.589637
92.560000 8.580703
92.580000 8.440039
92.600000 8.298661
92.620000 8.206281
92.640000 7.953296
92.660000 7.629146
92.680000 7.266291
92.700000 6.891883
92.720000 6.457526
92.740000 6.062407
92.760000 5.574068
92.780000 5.167494
92.800000 4.844899
92.820000 4.328777
92.840000 3.888105
92.860000 3.468620
92.880000 2.940371
92.900000 2.444176
92.920000 1.870416
92.940000 1.310757
92.960000 0.851349
92.980000 0.333168
93.000000 -0.276678
93.020000 -0.767385
93.040000 -1.329802
93.060000 -1.907076
93.080000 -2.531781
93.100000 -3.232929
93.120000 -3.779579
93.140000 -4.508538
93.160000 -5.156866
93.180000 -5.683546
93.200000 -6.343917
93.220000 -6.781816
93.240000 -7.318327
93.260000 -7.866587
93.280000 -8.121826
93.300000 -8.803580
93.320000 -8.980737
93.340000 -8.929022
93.360000 -9.766788
93.380000 -9.380127
93.400000 -9.222561
93.420000 -9.548517
93.440000 -8.920424
93.460000 -9.240877
93.480000 -8.957253
93.500000 -8.270752
93.520000 -8.935730
93.540000 -8.328600
93.560000 -7.502359
93.580000 -8.032513
93.600000 -7.234069
93.620000 -6.537556
93.640000 -6.681356
93.660000 -5.755173
93.680000 -5.494907
93.700000 -5.073826
93.720000 -4.239701
93.740000 -4.028320
93.760000 -3.416093
93.780000 -2.561356
93.800000 -1.974741
93.820000 -1.643701
93.840000 -0.587833
93.860000 0.142106
93.880000 0.218102
93.900000 1.315042
93.920000 1.917397
93.940000 2.104636
93.960000 3.139779
93.980000 3.515573
94.000000 4.067712
94.020000 5.039769
94.040000 4.986025
94.060000 5.841448
94.080000 6.551629
94.100000 6.267725
94.120000 7.118303
94.140000 7.458081
94.160000 7.408509
94.180000 7.971038
94.200000 8.059385
94.220000 8.310424
94.240000 8.645902
94.260000 8.489821
94.280000 8.654402
94.300000 8.832483
94.320000 8.606147
94.340000 8.475481
94.360000 8.667131
94.380000 8.412788
94.400000 8.085292
94.420000 8.253094
94.440000 7.830430
94.460000 7.421798
94.480000 7.302545
94.500000 6.660855
94.520000 6.371364
94.540000 6.075052
94.560000 5.307080
94.580000 5.200514
94.600000 4.870329
94.620000 4.100508
94.640000 3.952856
94.660000 3.501556
94.680000 2.833427
94.700000 2.472266
94.720000 1.876871
94.740000 1.317409
94.760000 0.946376
94.780000 0.240522
94.800000 -0.275348
94.820000 -0.608698
94.840000 -1.429590
94.860000 -1.982092
94.880000 -2.448909
94.900000 -3.327074
94.920000 -3.944132
94.940000 -4.545591
94.960000 -5.296031
94.980000 -5.744083
95.000000 -6.378729
95.020000 -6.998588
95.040000 -7.247624
95.060000 -7.890939
95.080000 -8.436846
95.100000 -8.513669
95.120000 -8.978594
95.140000 -9.278588
95.160000 -9.325668
95.180000 -9.453336
95.200000 -9.358604
95.220000 -9.260006
95.240000 -9.151116
95.260000 -9.019638
95.280000 -8.779593
95.300000 -8.670492
95.320000 -8.537488
95.340000 -8.054778
95.360000 -8.020750
95.380000 -7.598661
95.400000 -7.048538
95.420000 -6.873538
95.440000 -6.346382
95.460000 -5.822782
95.480000 -5.445629
95.500000 -4.851466
95.520000 -4.382283
95.540000 -3.901884
95.560000 -3.111520
95.580000 -2.664477
95.600000 -2.041075
95.620000 -1.235223
95.640000 -0.749320
95.660000 -0.056252
95.680000 0.556228
95.700000 1.124596
95.720000 1.784015
95.740000 2.292309
95.760000 2.973321
95.780000 3.535234
95.800000 4.132954
95.820000 4.675640
95.840000 5.232344
95.860000 5.806874
95.880000 6.039512
95.900000 6.582786
95.920000 6.975035
95.940000 7.130430
95.960000 7.533517
95.980000 7.853508
96.000000 8.035510
96.020000 8.328138
96.040000 8.436944
96.060000 8.546604
96.080000 8.769216
96.100000 8.581053
96.120000 8.641225
96.140000 8.709422
96.160000 8.514033
96.180000 8.454644
96.200000 8.330365
96.220000 8.196786
96.240000 7.933565
96.260000 7.622970
96.280000 7.289704
96.300000 6.873398
96.320000 6.472272
96.340000 6.036991
96.360000 5.642824
96.380000 5.210162
96.400000 4.757350
96.420000 4.396609
96.440000 3.950112
96.460000 3.385636
96.480000 2.958841
96.500000 2.459957
96.520000 1.877403
96.540000 1.369081
96.560000 0.773364
96.580000 0.347746
96.600000 -0.153631
96.620000 -0.862355
96.640000 -1.304400
96.660000 -1.854158
96.680000 -2.539650
96.700000 -3.185234
96.720000 -3.819754
96.740000 -4.428186
96.760000 -5.081163
96.780000 -5.688489
96.800000 -6.283436
96.820000 -6.774843
96.840000 -7.301397
96.860000 -7.847710
96.880000 -8.270136
96.900000 -8.641071
96.920000 -8.997989
96.940000 -9.249545
96.960000 -9.427094
96.980000 -9.555561
97.000000 -9.426506
97.020000 -9.328931
97.040000 -9.222113
97.060000 -9.085258
97.080000 -8.953864
97.100000 -8.703456
97.120000 -8.509608
97.140000 -8.333795
97.160000 -7.971934
97.180000 -7.635728
97.200000 -7.251699
97.220000 -6.838586
97.240000 -6.389330
97.260000 -5.921870
97.280000 -5.437297
97.300000 -4.919901
97.320000 -4.448001
97.340000 -3.854006
97.360000 -3.307483
97.380000 -2.689304
97.400000 -1.967557
97.420000 -1.371994
97.440000 -0.706316
97.460000 0.009760
97.480000 0.586167
97.500000 1.177389
97.520000 1.809907
97.540000 2.383485
97.560000 3.003120
97.580000 3.570620
97.600000 4.164391
97.620000 4.805983
97.640000 5.294687
97.660000 5.796455
97.680000 6.249366
97.700000 6.661429
97.720000 6.985145
97.740000 7.280070
97.760000 7.611950
97.780000 7.852430
97.800000 8.092839
97.820000 8.305649
97.840000 8.465217
97.860000 8.609410
97.880000 8.639013
97.900000 8.647009
97.920000 8.675309
97.940000 8.570522
97.960000 8.525361
97.980000 8.379852
98.000000 8.231361
98.020000 8.110792
98.040000 7.831145
98.060000 7.526235
98.080000 7.159025
98.100000 6.750715
98.120000 6.381306
98.140000 5.952145
98.160000 5.461159
98.180000 5.118104
98.200000 4.699502
98.220000 4.361124
98.240000 3.717222
98.260000 3.413152
98.280000 3.048645
98.300000 2.225849
98.320000 2.002663
98.340000 1.294933
98.360000 0.777103
98.380000 0.471073
98.400000 -0.433180
98.420000 -0.699272
98.440000 -1.196042
98.460000 -2.085885
98.480000 -2.550153
98.500000 -3.132931
98.520000 -4.008029
98.540000 -4.485670
98.560000 -5.237175
98.580000 -5.843773
98.600000 -6.173860
98.620000 -7.015350
98.640000 -7.299787
98.660000 -7.854670
98.680000 -8.282473
98.700000 -8.544406
98.720000 -9.075428
98.740000 -9.040027
98.760000 -9.434180
98.780000 -9.433046
98.800000 -9.250358
98.820000 -9.408764
98.840000 -9.048821
98.860000 -8.953360
98.880000 -8.875095
98.900000 -8.527546
98.920000 -8.500982
98.940000 -8.206785
98.960000 -7.711080
98.980000 -7.724033
99.000000 -7.109089
99.020000 -6.669635
99.040000 -6.495741
99.060000 -5.726845
99.080000 -5.495859
99.100000 -4.841188
99.120000 -4.317098
99.140000 -3.937747
99.160000 -3.147579
99.180000 -2.634453
99.200000 -1.978970
99.220000 -1.397186
99.240000 -0.697830
99.260000 -0.024716
99.280000 0.444845
99.300000 1.149410
99.320000 1.783875
99.340000 2.262706
99.360000 2.945930
99.380000 3.501990
99.400000 4.046693
99.420000 4.748499
99.440000 5.106412
99.460000 5.685325
99.480000 6.181478
99.500000 6.410293
99.520000 6.950473
99.540000 7.142809
99.560000 7.463598
99.580000 7.816497
99.600000 7.987366
99.620000 8.291491
99.640000 8.384404
99.660000 8.562582
99.680000 8.665157
99.700000 8.653450
99.720000 8.633747
99.740000 8.641603
99.760000 8.620654
99.780000 8.443694
99.800000 8.311712
99.820000 8.228042
99.840000 7.998877
99.860000 7.636330
99.880000 7.361500
99.900000 6.899865
99.920000 6.538242
99.940000 6.182458
99.960000 5.572794
99.980000 5.306394
100.000000 4.852727
100.020000 4.357091
100.040000 3.994894
100.060000 3.438134
100.080000 2.974231
100.100000 2.509613
100.120000 1.926443
100.140000 1.375201
100.160000 0.880027
100.180000 0.344301
100.200000 -0.197574
100.220000 -0.749320
100.240000 -1.315602
100.260000 -1.876829
100.280000 -2.500987
100.300000 -3.161890
100.320000 -3.798385
100.340000 -4.419686
100.360000 -5.071305
100.380000 -5.699076
100.400000 -6.231442
100.420000 -6.826151
100.440000 -7.317235
100.460000 -7.832881
100.480000 -8.322355
100.500000 -8.627670
100.520000 -9.014079
100.540000 -9.284862
100.560000 -9.462789
100.580000 -9.543728
100.600000 -9.500248
100.620000 -9.392968
100.640000 -9.264081
100.660000 -9.149715
100.680000 -8.891984
100.700000 -8.768978
100.720000 -8.567610
100.740000 -8.225395
100.760000 -7.989873
100.780000 -7.618559
100.800000 -7.213680
100.820000 -6.816531
100.840000 -6.370719
100.860000 -5.874846
100.880000 -5.439075
100.900000 -4.871757
100.920000 -4.388431
100.940000 -3.871973
100.960000 -3.218786
100.980000 -2.660836
101.000000 -1.993687
101.020000 -1.335025
101.040000 -0.682006
101.060000 -0.004677
101.080000 0.578115
101.100000 1.219749
101.120000 1.841037
101.140000 2.390403
101.160000 2.999213
101.180000 3.578756
101.200000 4.183226
101.220000 4.735910
101.240000 5.242314
101.260000 5.797464
101.280000 6.207244
101.300000 6.592771
101.320000 6.984627
101.340000 7.219758
101.360000 7.576255
101.380000 7.827210
101.400000 7.975533
101.420000 8.309177
101.440000 8.400395
101.460000 8.518584
101.480000 8.631927
101.500000 8.617237
101.520000 8.630541
101.540000 8.587606
101.560000 8.474319
101.580000 8.391895
101.600000 8.262014
101.620000 8.061486
101.640000 7.841003
101.660000 7.547254
101.680000 7.211271
101.700000 6.768289
101.720000 6.411441
101.740000 5.992040
101.760000 5.525210
101.780000 5.186133
101.800000 4.708800
101.820000 4.345020
101.840000 3.916237
101.860000 3.422367
101.880000 2.986246
101.900000 2.423955
101.920000 1.914064
101.940000 1.419479
101.960000 0.833522
101.980000 0.312905
102.000000 -0.183850
102.020000 -0.726761
102.040000 -1.322170
102.060000 -1.945306
102.080000 -2.538320
102.100000 -3.141865
102.120000 -3.881579
102.140000 -4.549778
102.160000 -5.154247
102.180000 -5.736031
102.200000 -6.329227
102.220000 -6.873678
102.240000 -7.306312
102.260000 -7.827868
102.280000 -8.281997
102.300000 -8.581753
102.320000 -8.913409
102.340000 -9.217310
102.360000 -9.388109
102.380000 -9.413077
102.400000 -9.416704
102.420000 -9.325906
102.440000 -9.196963
102.460000 -9.030449
102.480000 -8.808467
102.500000 -8.708847
102.520000 -8.478870
102.540000 -8.190905
102.560000 -7.932207
102.580000 -7.594012
102.600000 -7.200853
102.620000 -6.799713
102.640000 -6.325461
102.660000 -5.916982
102.680000 -5.383062
102.700000 -4.877134
102.720000 -4.387157
102.740000 -3.783500
102.760000 -3.266257
102.780000 -2.606769
102.800000 -1.946734
102.820000 -1.383197
102.840000 -0.658494
102.860000 -0.055453
102.880000 0.540040
102.900000 1.199640
102.920000 1.760139
102.940000 2.353770
102.960000 2.933971
102.980000 3.540345
103.000000 4.156143
103.020000 4.617246
103.040000 5.196103
103.060000 5.767847
103.080000 6.074198
103.100000 6.496344
103.120000 6.866985
103.140000 7.158101
103.160000 7.498481
103.180000 7.706515
103.200000 8.010374
103.220000 8.275121
103.240000 8.352210
103.260000 8.538286
103.280000 8.658029
103.300000 8.604494
103.320000 8.655355
103.340000 8.657161
103.360000 8.543902
103.380000 8.450835
103.400000 8.346902
103.420000 8.227258
103.440000 7.970478
103.460000 7.605452
103.480000 7.363712
103.500000 7.000073
103.520000 6.461503
103.540000 6.058584
103.560000 5.698964
103.580000 5.273206
103.600000 4.788045
103.620000 4.324183
103.640000 3.953934
103.660000 3.529380
103.680000 2.928188
103.700000 2.417121
103.720000 1.940811
103.740000 1.398838
103.760000 0.849458
103.780000 0.291998
103.800000 -0.216576
103.820000 -0.734281
103.840000 -1.307032
103.860000 -1.872068
103.880000 -2.507471
103.900000 -3.136264
103.920000 -3.735314
103.940000 -4.380141
103.960000 -5.041632
103.980000 -5.669459
104.000000 -6.207020
104.020000 -6.690976
104.040000 -7.268531
104.060000 -7.845876
104.080000 -8.219920
104.100000 -8.560342
104.120000 -8.950518
104.140000 -9.303767
104.160000 -9.448631
104.180000 -9.471919
104.200000 -9.476064
104.220000 -9.444850
104.240000 -9.284736
104.260000 -9.095242
104.280000 -8.956105
104.300000 -8.770140
104.320000 -8.573155
104.340000 -8.303310
104.360000 -8.002980
104.380000 -7.669070
104.400000 -7.253646
104.420000 -6.902903
104.440000 -6.408809
104.460000 -5.877815
104.480000 -5.484572
104.500000 -4.950736
104.520000 -4.427906
104.540000 -3.818396
104.560000 -3.283019
104.580000 -2.758467
104.600000 -1.968327
104.620000 -1.295269
104.640000 -0.714900
104.660000 -0.056588
104.680000 0.615826
104.700000 1.267459
104.720000 1.810719
104.740000 2.337386
104.760000 2.992883
104.780000 3.644824
104.800000 4.145991
104.820000 4.707918
104.840000 5.274788
104.860000 5.787115
104.880000 6.223656
104.900000 6.592057
104.920000 6.948876
104.940000 7.234335
104.960000 7.591015
104.980000 7.777134
105.000000 7.972060
105.020000 8.292793
105.040000 8.411962
105.060000 8.530515
105.080000 8.596176
105.100000 8.621817
105.120000 8.700319
105.140000 8.560314
105.160000 8.456451
105.180000 8.460106
105.200000 8.264465
105.220000 8.065771
105.240000 7.845470
105.260000 7.574253
105.280000 7.236954
105.300000 6.748208
105.320000 6.378855
105.340000 6.063808
105.360000 5.521919
105.380000 5.094509
105.400000 4.751118
105.420000 4.355565
105.440000 3.859188
105.460000 3.391979
105.480000 2.993402
105.500000 2.434751
105.520000 1.852099
105.540000 1.376461
105.560000 0.877395
105.580000 0.326853
105.600000 -0.278177
105.620000 -0.748858
105.640000 -1.207090
105.660000 -1.954506
105.680000 -2.627326
105.700000 -3.089227
105.720000 -3.789451
105.740000 -4.578681
105.760000 -5.220987
105.780000 -5.688840
105.800000 -6.198156
105.820000 -6.891351
105.840000 -7.408313
105.860000 -7.753594
105.880000 -8.142117
105.900000 -8.642444
105.920000 -8.988523
105.940000 -9.111626
105.960000 -9.324940
105.980000 -9.443772
106.000000 -9.413091
106.020000 -9.296065
106.040000 -9.176014
106.060000 -8.980163
106.080000 -8.768404
106.100000 -8.721395
106.120000 -8.536508
106.140000 -8.118606
106.160000 -7.850161
106.180000 -7.707355
106.200000 -7.286526
106.220000 -6.693903
106.240000 -6.279319
106.260000 -6.035675
106.280000 -5.537253
106.300000 -4.761004
106.320000 -4.327838
106.340000 -3.961902
106.360000 -3.349115
106.380000 -2.535548
106.400000 -1.906614
106.420000 -1.502267
106.440000 -0.760369
106.460000 -0.005909
106.480000 0.565050
106.500000 1.153163
106.520000 1.718325
106.540000 2.267607
106.560000 2.998947
106.580000 3.611048
106.600000 4.018574
106.620000 4.579255
106.640000 5.288483
106.660000 5.805165
106.680000 6.052059
106.700000 6.405070
106.720000 6.932324
106.740000 7.306508
106.760000 7.438336
106.780000 7.608365
106.800000 8.067521
106.820000 8.396852
106.840000 8.348989
106.860000 8.439297
106.880000 8.682451
106.900000 8.775111
106.920000 8.654304
106.940000 8.564809
106.960000 8.572091
106.980000 8.557401
107.000000 8.417507
107.020000 8.151345
107.040000 7.929616
107.060000 7.797046
107.080000 7.386762
107.100000 6.933935
107.120000 6.509255
107.140000 6.071313
107.160000 5.745511
107.180000 5.238547
107.200000 4.735056
107.220000 4.336829
107.240000 3.952366
107.260000 3.548047
107.280000 2.872959
107.300000 2.275057
107.320000 2.003924
107.340000 1.446142
107.360000 0.660105
107.380000 0.170617
107.400000 -0.179215
107.420000 -0.712939
107.440000 -1.433609
107.460000 -2.048566
107.480000 -2.425201
107.500000 -3.070294
107.520000 -3.877336
107.540000 -4.451068
107.560000 -4.975368
107.580000 -5.593673
107.600000 -6.251929
107.620000 -6.706422
107.640000 -7.214086
107.660000 -7.790787
107.680000 -8.143630
107.700000 -8.538679
107.720000 -8.989363
107.740000 -9.232349
107.760000 -9.331479
107.780000 -9.442456
107.800000 -9.551934
107.820000 -9.404353
107.840000 -9.143050
107.860000 -9.067908
107.880000 -9.064001
107.900000 -8.755801
107.920000 -8.415449
107.940000 -8.307273
107.960000 -8.101507
107.980000 -7.624245
108.000000 -7.162932
108.020000 -6.840966
108.040000 -6.462455
108.060000 -5.908188
108.080000 -5.364129
108.100000 -4.969389
108.120000 -4.453028
108.140000 -3.836306
108.160000 -3.315801
108.180000 -2.694136
108.200000 -1.995550
108.220000 -1.398684
108.240000 -0.738370
108.260000 -0.049110
108.280000 0.608054
108.300000 1.166999
108.320000 1.710497
108.340000 2.384087
108.360000 3.005052
108.380000 3.526622
108.400000 4.068720
108.420000 4.745027
108.440000 5.336347
108.460000 5.702101
108.480000 6.145923
108.500000 6.648028
108.520000 6.989752
108.540000 7.216215
108.560000 7.535225
108.580000 7.819480
108.600000 8.075685
108.620000 8.259760
108.640000 8.412634
108.660000 8.586458
108.680000 8.633103
108.700000 8.673237
108.720000 8.686288
108.740000 8.589413
108.760000 8.507689
108.780000 8.443554
108.800000 8.328614
108.820000 8.096844
108.840000 7.850189
108.860000 7.620366
108.880000 7.286708
108.900000 6.776383
108.920000 6.366238
108.940000 6.038252
108.960000 5.568901
108.980000 5.123720
109.000000 4.683090
109.020000 4.335092
109.040000 3.955769
109.060000 3.392610
109.080000 2.905124
109.100000 2.435017
109.120000 1.904038
109.140000 1.357430
109.160000 0.773252
109.180000 0.290080
109.200000 -0.207012
109.220000 -0.754277
109.240000 -1.316232
109.260000 -1.940895
109.280000 -2.543165
109.300000 -3.086244
109.320000 -3.834402
109.340000 -4.571637
109.360000 -5.080869
109.380000 -5.649672
109.400000 -6.266492
109.420000 -6.862532
109.440000 -7.270464
109.460000 -7.669938
109.480000 -8.221838
109.500000 -8.649627
109.520000 -8.873233
109.540000 -9.073957
109.560000 -9.349544
109.580000 -9.537749
109.600000 -9.328216
109.620000 -9.217282
109.640000 -9.161926
109.660000 -9.023279
109.680000 -8.865825
109.700000 -8.568730
109.720000 -8.487538
109.740000 -8.244174
109.760000 -7.904578
109.780000 -7.626177
109.800000 -7.145022
109.820000 -6.782754
109.840000 -6.429408
109.860000 -5.882268
109.880000 -5.346639
109.900000 -4.900100
109.920000 -4.434320
109.940000 -3.901660
109.960000 -3.244650
109.980000 -2.559199
110.000000 -2.125459
110.020000 -1.455958
110.040000 -0.647222
110.060000 -0.016720
110.080000 0.475750
110.100000 1.017779
110.120000 1.796576
110.140000 2.366905
110.160000 2.863170
110.180000 3.439045
110.200000 4.061508
110.220000 4.721319
110.240000 5.180209
110.260000 5.641242
110.280000 6.114290
110.300000 6.525415
110.320000 6.910213
110.340000 7.176557
110.360000 7.400093
110.380000 7.706108
110.400000 8.096046
110.420000 8.284784
110.440000 8.321612
110.460000 8.464125
110.480000 8.736308
110.500000 8.797363
110.520000 8.538721
110.540000 8.516973
110.560000 8.693150
110.580000 8.596779
110.600000 8.251231
110.620000 8.102404
110.640000 8.097993
110.660000 7.821202
110.680000 7.324209
110.700000 6.850671
110.720000 6.597896
110.740000 6.244619
110.760000 5.615098
110.780000 5.161501
110.800000 4.795817
110.820000 4.428957
110.840000 3.949173
110.860000 3.383969
110.880000 2.875073
110.900000 2.446178
110.920000 1.970988
110.940000 1.304218
110.960000 0.678897
110.980000 0.277337
111.000000 -0.127823
111.020000 -0.783194
111.040000 -1.443565
111.060000 -1.945376
111.080000 -2.365309
111.100000 -3.007783
111.120000 -3.893244
111.140000 -4.465435
111.160000 -4.830979
111.180000 -5.510101
111.200000 -6.289710
111.220000 -6.757072
111.240000 -7.120866
111.260000 -7.599557
111.280000 -8.201548
111.300000 -8.672971
111.320000 -8.806563
111.340000 -9.130335
111.360000 -9.468922
111.380000 -9.505023
111.400000 -9.470056
111.420000 -9.350146
111.440000 -9.208628
111.460000 -9.123963
111.480000 -8.989139
111.500000 -8.764301
111.520000 -8.548047
111.540000 -8.282305
111.560000 -8.083415
111.580000 -7.771924
111.600000 -7.222628
111.620000 -6.824386
111.640000 -6.490056
111.660000 -5.991746
111.680000 -5.384308
111.700000 -4.906149
111.720000 -4.485656
111.740000 -3.926796
111.760000 -3.279224
111.780000 -2.674265
111.800000 -2.071280
111.820000 -1.399931
111.840000 -0.685941
111.860000 -0.040484
111.880000 0.576337
111.900000 1.208238
111.920000 1.788846
111.940000 2.320512
111.960000 3.005122
111.980000 3.592606
112.000000 4.083900
112.020000 4.701728
112.040000 5.335773
112.060000 5.813848
112.080000 6.167811
112.100000 6.537289
112.120000 7.046704
112.140000 7.340355
112.160000 7.436642
112.180000 7.775621
112.200000 8.125369
112.220000 8.317369
112.240000 8.418642
112.260000 8.479038
112.280000 8.710388
112.300000 8.770672
112.320000 8.595756
112.340000 8.581459
112.360000 8.565565
112.380000 8.456969
112.400000 8.315675
112.420000 8.116225
112.440000 7.868043
112.460000 7.648036
112.480000 7.302489
112.500000 6.799573
112.520000 6.348216
112.540000 6.001031
112.560000 5.614244
112.580000 5.123328
112.600000 4.627356
112.620000 4.268282
112.640000 3.986884
112.660000 3.420350
112.680000 2.791655
112.700000 2.387434
112.720000 1.967851
112.740000 1.341901
112.760000 0.703767
112.780000 0.241320
112.800000 -0.162117
112.820000 -0.766250
112.840000 -1.426355
112.860000 -1.921010
112.880000 -2.476005
112.900000 -3.181397
112.920000 -3.891241
112.940000 -4.488639
112.960000 -5.083810
112.980000 -5.738425
113.000000 -6.262838
113.020000 -6.755672
113.040000 -7.235595
113.060000 -7.754742
113.080000 -8.208199
113.100000 -8.478114
113.120000 -8.872057
113.140000 -9.176840
113.160000 -9.312071
113.180000 -9.396693
113.200000 -9.392716
113.220000 -9.300938
113.240000 -9.141902
113.260000 -8.973105
113.280000 -8.836670
113.300000 -8.665199
113.320000 -8.460036
113.340000 -8.245140
113.360000 -7.926395
113.380000 -7.601629
113.400000 -7.221102
113.420000 -6.814528
113.440000 -6.395379
113.460000 -5.856642
113.480000 -5.368288
113.500000 -4.936565
113.520000 -4.365395
113.540000 -3.796061
113.560000 -3.262196
113.580000 -2.643654
113.600000 -2.004988
113.620000 -1.364012
113.640000 -0.710209
113.660000 -0.061377
113.680000 0.550766
113.700000 1.159311
113.720000 1.732202
113.740000 2.316311
113.760000 2.940581
113.780000 3.477260
113.800000 4.058036
113.820000 4.669745
113.840000 5.195165
113.860000 5.667470
113.880000 6.103367
113.900000 6.522362
113.920000 6.880722
113.940000 7.151757
113.960000 7.429402
113.980000 7.751381
114.000000 7.999297
114.020000 8.197781
114.040000 8.400115
114.060000 8.515167
114.080000 8.579736
114.100000 8.680603
114.120000 8.669596
114.140000 8.553368
114.160000 8.561084
114.180000 8.487496
114.200000 8.374223
114.220000 8.187656
114.240000 7.890253
114.260000 7.768942
114.280000 7.457283
114.300000 6.865430
114.320000 6.492087
114.340000 6.197792
114.360000 5.737473
114.380000 5.168404
114.400000 4.730603
114.420000 4.450592
114.440000 4.005817
114.460000 3.397063
114.480000 2.884399
114.500000 2.518015
114.520000 2.003378
114.540000 1.263902
114.560000 0.778895
114.580000 0.403465
114.600000 -0.229599
114.620000 -0.787423
114.640000 -1.333373
114.660000 -1.865767
114.680000 -2.427400
114.700000 -3.173219
114.720000 -3.752370
114.740000 -4.339223
114.760000 -5.066068
114.780000 -5.579403
114.800000 -6.152505
114.820000 -6.755630
114.840000 -7.217825
114.860000 -7.697636
114.880000 -8.148979
114.900000 -8.618540
114.920000 -8.955839
114.940000 -9.110254
114.960000 -9.365087
114.980000 -9.578807
115.000000 -9.498329
115.020000 -9.306483
115.040000 -9.248229
115.060000 -9.211652
115.080000 -8.962252
115.100000 -8.729292
115.120000 -8.590085
115.140000 -8.342870
115.160000 -8.036938
115.180000 -7.650879
115.200000 -7.289872
115.220000 -6.881072
115.240000 -6.365524
115.260000 -5.932330
115.280000 -5.450264
115.300000 -4.868088
115.320000 -4.394606
115.340000 -3.913717
115.360000 -3.302400
115.380000 -2.613392
115.400000 -2.010155
115.420000 -1.416665
115.440000 -0.689974
115.460000 0.018358
115.480000 0.616456
115.500000 1.139398
115.520000 1.799531
115.540000 2.469186
115.560000 2.915459
115.580000 3.511456
115.600000 4.209510
115.620000 4.718042
115.640000 5.265336
115.660000 5.741506
115.680000 6.194921
115.700000 6.672590
115.720000 6.912664
115.740000 7.230358
115.760000 7.600761
115.780000 7.749827
115.800000 8.042581
115.820000 8.280765
115.840000 8.403658
115.860000 8.541549
115.880000 8.646967
115.900000 8.671318
115.920000 8.647471
115.940000 8.573155
115.960000 8.538749
115.980000 8.459462
116.000000 8.238292
116.020000 8.113746
116.040000 7.923049
116.060000 7.614596
116.080000 7.200629
116.100000 6.818813
116.120000 6.460453
116.140000 6.008760
116.160000 5.509288
116.180000 5.088963
116.200000 4.763259
116.220000 4.314395
116.240000 3.816267
116.260000 3.415099
116.280000 2.928916
116.300000 2.418185
116.320000 1.870962
116.340000 1.315616
116.360000 0.830330
116.380000 0.289534
116.400000 -0.241012
116.420000 -0.795881
116.440000 -1.344659
116.460000 -1.909919
116.480000 -2.529078
116.500000 -3.171272
116.520000 -3.845688
116.540000 -4.509938
116.560000 -5.079665
116.580000 -5.700840
116.600000 -6.295731
116.620000 -6.769339
116.640000 -7.250369
116.660000 -7.701683
116.680000 -8.174829
116.700000 -8.572441
116.720000 -8.787238
116.740000 -9.113657
116.760000 -9.352232
116.780000 -9.369246
116.800000 -9.363827
116.820000 -9.232545
116.840000 -9.137224
116.860000 -9.023895
116.880000 -8.793442
116.900000 -8.638425
116.920000 -8.484822
116.940000 -8.214459
116.960000 -7.946924
116.980000 -7.596770
117.000000 -7.222572
117.020000 -6.827299
117.040000 -6.371700
117.060000 -5.890796
117.080000 -5.378483
117.100000 -4.906583
117.120000 -4.424097
117.140000 -3.819726
117.160000 -3.236122
117.180000 -2.655122
117.200000 -2.009637
117.220000 -1.361785
117.240000 -0.673100
117.260000 -0.033244
117.280000 0.534985
117.300000 1.170905
117.320000 1.791717
117.340000 2.318579
117.360000 2.913974
117.380000 3.499343
117.400000 4.106459
117.420000 4.679491
117.440000 5.168376
117.460000 5.685983
117.480000 6.168259
117.500000 6.521914
117.520000 6.866411
117.540000 7.156098
117.560000 7.451989
117.580000 7.750023
117.600000 7.956419
117.620000 8.185640
117.640000 8.373803
117.660000 8.519690
117.680000 8.612756
117.700000 8.611510
117.720000 8.610404
117.740000 8.616383
117.760000 8.529436
117.780000 8.408391
117.800000 8.306517
117.820000 8.199783
117.840000 7.977074
117.860000 7.685804
117.880000 7.347762
117.900000 6.968621
117.920000 6.568013
117.940000 6.110047
117.960000 5.640626
117.980000 5.226098
118.000000 4.806333
118.020000 4.351168
118.040000 3.898803
118.060000 3.434690
118.080000 2.950019
118.100000 2.436404
118.120000 1.888886
118.140000 1.333373
118.160000 0.795377
118.180000 0.317358
118.200000 -0.247846
118.220000 -0.803681
118.240000 -1.295928
118.260000 -1.896770
118.280000 -2.450225
118.300000 -3.091313
118.320000 -3.757537
118.340000 -4.348619
118.360000 -4.982090
118.380000 -5.580565
118.400000 -6.159815
118.420000 -6.670574
118.440000 -7.151099
118.460000 -7.676645
118.480000 -8.153096
118.500000 -8.518990
118.520000 -8.853544
118.540000 -9.149673
118.560000 -9.375128
118.580000 -9.486608
118.600000 -9.412881
118.620000 -9.324281
118.640000 -9.219830
118.660000 -9.058316
118.680000 -8.918268
118.700000 -8.752930
118.720000 -8.548831
118.740000 -8.266551
118.760000 -8.040243
118.780000 -7.692973
118.800000 -7.238606
118.820000 -6.848150
118.840000 -6.397452
118.860000 -5.920259
118.880000 -5.387697
118.900000 -4.896767
118.920000 -4.422081
118.940000 -3.890149
118.960000 -3.296869
118.980000 -2.703938
119.000000 -2.064600
119.020000 -1.385675
119.040000 -0.719003
119.060000 -0.062077
119.080000 0.539214
119.100000 1.199472
119.120000 1.775459
119.140000 2.311466
119.160000 2.921508
119.180000 3.535682
119.200000 4.129803
119.220000 4.662477
119.240000 5.257424
119.260000 5.772930
119.280000 6.172404
119.300000 6.624558
119.320000 6.958889
119.340000 7.259247
119.360000 7.540519
119.380000 7.794708
119.400000 8.047833
119.420000 8.280092
119.440000 8.431077
119.460000 8.578322
119.480000 8.686974
119.500000 8.678614
119.520000 8.675393
119.540000 8.647191
119.560000 8.558367
119.580000 8.420392
119.600000 8.340909
119.620000 8.157003
119.640000 7.904634
119.660000 7.651411
119.680000 7.240497
119.700000 6.870710
119.720000 6.411749
119.740000 5.968221
119.760000 5.563439
119.780000 5.077355
119.800000 4.695539
119.820000 4.293642
119.840000 3.845100
119.860000 3.386014
119.880000 2.904942
119.900000 2.395906
119.920000 1.873762
119.940000 1.298532
119.960000 0.777257
119.980000 0.293791
120.000000 -0.280670
120.020000 -0.780744
120.040000 -1.337490
120.060000 -1.903982
120.080000 -2.517161
120.100000 -3.206281
120.120000 -3.807207
120.140000 -4.516408
120.160000 -5.155857
120.180000 -5.699272
120.200000 -6.277289
120.220000 -6.744889
120.240000 -7.271962
120.260000 -7.746158
120.280000 -8.130200
120.300000 -8.531747
120.320000 -8.867226
120.340000 -9.126078
120.360000 -9.303024
120.380000 -9.413385
120.400000 -9.372817
120.420000 -9.287215
120.440000 -9.129635
120.460000 -8.949467
120.480000 -8.811352
120.500000 -8.651602
120.520000 -8.457599
120.540000 -8.205244
120.560000 -7.905474
120.580000 -7.568483
120.600000 -7.224085
120.620000 -6.791689
120.640000 -6.309371
120.660000 -5.864848
120.680000 -5.335731
120.700000 -4.888295
120.720000 -4.353759
120.740000 -3.762424
120.760000 -3.248375
120.780000 -2.609443
120.800000 -1.976519
120.820000 -1.335557
120.840000 -0.667456
120.860000 -0.024744
120.880000 0.575370
120.900000 1.188942
120.920000 1.776271
120.940000 2.311270
120.960000 2.911958
120.980000 3.495660
121.000000 4.063441
121.020000 4.642326
121.040000 5.183794
121.060000 5.646927
121.080000 6.109417
121.100000 6.525219
121.120000 6.824919
121.140000 7.124115
121.160000 7.451863
121.180000 7.705758
121.200000 7.979048
121.220000 8.188608
121.240000 8.368314
121.260000 8.561238
121.280000 8.622251
121.300000 8.632767
121.320000 8.670576
121.340000 8.641561
121.360000 8.548229
121.380000 8.470860
121.400000 8.354870
121.420000 8.222132
121.440000 7.995110
121.460000 7.711584
121.480000 7.387798
121.500000 6.959953
121.520000 6.531674
121.540000 6.118995
121.560000 5.627785
121.580000 5.201340
121.600000 4.766648
121.620000 4.340763
121.640000 3.902220
121.660000 3.423277
121.680000 2.930512
121.700000 2.415245
121.720000 1.863498
121.740000 1.330810
121.760000 0.768113
121.780000 0.273948
121.800000 -0.275782
121.820000 -0.829839
121.840000 -1.312970
121.860000 -1.921038
121.880000 -2.528294
121.900000 -3.110274
121.920000 -3.757383
121.940000 -4.419364
121.960000 -5.000042
121.980000 -5.629381
122.000000 -6.161873
122.020000 -6.663614
122.040000 -7.212112
122.060000 -7.662670
122.080000 -8.113256
122.100000 -8.516245
122.120000 -8.829374
122.140000 -9.126344
122.160000 -9.332501
122.180000 -9.442036
122.200000 -9.398513
122.220000 -9.292914
122.240000 -9.194190
122.260000 -9.037380
122.280000 -8.888161
122.300000 -8.690139
122.320000 -8.520796
122.340000 -8.262616
122.360000 -7.970254
122.380000 -7.643261
122.400000 -7.230344
122.420000 -6.827635
122.440000 -6.367527
122.460000 -5.870239
122.480000 -5.382068
122.500000 -4.904819
122.520000 -4.369778
122.540000 -3.825426
122.560000 -3.292864
122.580000 -2.663146
122.600000 -2.021918
122.620000 -1.363998
122.640000 -0.693993
122.660000 -0.038369
122.680000 0.577919
122.700000 1.192191
122.720000 1.798942
122.740000 2.331546
122.760000 2.938830
122.780000 3.501136
122.800000 4.094136
122.820000 4.665305
122.840000 5.204337
122.860000 5.704005
122.880000 6.146484
122.900000 6.582730
122.920000 6.892821
122.940000 7.202533
122.960000 7.511378
122.980000 7.735403
123.000000 7.986624
123.020000 8.198257
123.040000 8.392750
123.060000 8.533651
123.080000 8.594314
123.100000 8.661446
123.120000 8.643354
123.140000 8.578644
123.160000 8.526566
123.180000 8.432071
123.200000 8.290385
123.220000 8.154482
123.240000 7.884189
123.260000 7.647672
123.280000 7.278684
123.300000 6.840994
123.320000 6.470577
123.340000 6.020495
123.360000 5.584935
123.380000 5.135553
123.400000 4.737759
123.420000 4.339839
123.440000 3.866455
123.460000 3.446775
123.480000 2.964359
123.500000 2.420832
123.520000 1.936764
123.540000 1.361505
123.560000 0.832780
123.580000 0.350224
123.600000 -0.247621
123.620000 -0.739560
123.640000 -1.266436
123.660000 -1.928768
123.680000 -2.473905
123.700000 -3.145562
123.720000 -3.809140
123.740000 -4.472479
123.760000 -5.125792
123.780000 -5.679261
123.800000 -6.253413
123.820000 -6.769115
123.840000 -7.250971
123.860000 -7.707929
123.880000 -8.152228
123.900000 -8.535444
123.920000 -8.829430
123.940000 -9.117102
123.960000 -9.346925
123.980000 -9.412083
124.000000 -9.382143
124.020000 -9.282663
124.040000 -9.161534
124.060000 -8.991589
124.080000 -8.789703
124.100000 -8.653198
124.120000 -8.493532
124.140000 -8.203942
124.160000 -7.927992
124.180000 -7.584195
124.200000 -7.226325
124.220000 -6.821432
124.240000 -6.321834
124.260000 -5.872046
124.280000 -5.355895
124.300000 -4.868704
124.320000 -4.349320
124.340000 -3.779929
124.360000 -3.209768
124.380000 -2.611922
124.400000 -1.990452
124.420000 -1.348300
124.440000 -0.639352
124.460000 -0.028063
124.480000 0.559154
124.500000 1.201153
124.520000 1.784547
124.540000 2.365267
124.560000 2.914437
124.580000 3.482609
124.600000 4.113223
124.620000 4.653081
124.640000 5.177675
124.660000 5.676909
124.680000 6.128139
124.700000 6.546182
124.720000 6.832466
124.740000 7.150833
124.760000 7.467435
124.780000 7.728836
124.800000 7.985224
124.820000 8.209347
124.840000 8.399401
124.860000 8.559067
124.880000 8.638467
124.900000 8.676794
124.920000 8.659360
124.940000 8.644642
124.960000 8.575816
124.980000 8.465091
125.000000 8.344410
125.020000 8.189239
125.040000 8.013846
125.060000 7.713166
125.080000 7.347622
125.100000 6.971422
125.120000 6.560479
125.140000 6.113716
125.160000 5.628863
125.180000 5.192938
125.200000 4.803603
125.220000 4.349362
125.240000 3.851248
125.260000 3.453048
125.280000 2.965017
125.300000 2.422540
125.320000 1.900103
125.340000 1.324410
125.360000 0.834082
125.380000 0.309558
125.400000 -0.282420
125.420000 -0.775086
125.440000 -1.297468
125.460000 -1.857701
125.480000 -2.470558
125.500000 -3.073501
125.520000 -3.707475
125.540000 -4.336632
125.560000 -4.962975
125.580000 -5.589346
125.600000 -6.168637
125.620000 -6.651487
125.640000 -7.129576
125.660000 -7.723151
125.680000 -8.145100
125.700000 -8.490885
125.720000 -8.857899
125.740000 -9.135194
125.760000 -9.439697
125.780000 -9.500920
125.800000 -9.402728
125.820000 -9.417950
125.840000 -9.295841
125.860000 -9.074895
125.880000 -8.925886
125.900000 -8.758629
125.920000 -8.562540
125.940000 -8.324973
125.960000 -7.981709
125.980000 -7.693463
126.000000 -7.288472
126.020000 -6.829764
126.040000 -6.423470
126.060000 -5.895641
126.080000 -5.395567
126.100000 -4.869685
126.120000 -4.376584
126.140000 -3.836306
126.160000 -3.212918
126.180000 -2.667179
126.200000 -1.983829
126.220000 -1.322842
126.240000 -0.686431
126.260000 0.024968
126.280000 0.600478
126.300000 1.244143
126.320000 1.863736
126.340000 2.376119
126.360000 2.981961
126.380000 3.599733
126.400000 4.120715
126.420000 4.706811
126.440000 5.286971
126.460000 5.740568
126.480000 6.217285
126.500000 6.596692
126.520000 6.939942
126.540000 7.257329
126.560000 7.514416
126.580000 7.762724
126.600000 8.018426
126.620000 8.239553
126.640000 8.392427
126.660000 8.560804
126.680000 8.619534
126.700000 8.647933
126.720000 8.683333
126.740000 8.581893
126.760000 8.516679
126.780000 8.417199
126.800000 8.275135
126.820000 8.146038
126.840000 7.872244
126.860000 7.569478
126.880000 7.299465
126.900000 6.833209
126.920000 6.402311
126.940000 6.003201
126.960000 5.540110
126.980000 5.146125
127.000000 4.690245
127.020000 4.281403
127.040000 3.867450
127.060000 3.424425
127.080000 2.931773
127.100000 2.380782
127.120000 1.906236
127.140000 1.357234
127.160000 0.792632
127.180000 0.306940
127.200000 -0.253517
127.220000 -0.782130
127.240000 -1.275301
127.260000 -1.919693
127.280000 -2.498831
127.300000 -3.098903
127.320000 -3.839373
127.340000 -4.436056
127.360000 -5.098934
127.380000 -5.720599
127.400000 -6.205046
127.420000 -6.771020
127.440000 -7.223160
127.460000 -7.707215
127.480000 -8.136642
127.500000 -8.498181
127.520000 -8.806969
127.540000 -9.091938
127.560000 -9.309620
127.580000 -9.370521
127.600000 -9.379553
127.620000 -9.271755
127.640000 -9.159672
127.660000 -8.965991
127.680000 -8.802712
127.700000 -8.638775
127.720000 -8.464251
127.740000 -8.226600
127.760000 -7.904382
127.780000 -7.607917
127.800000 -7.214814
127.820000 -6.815046
127.840000 -6.366602
127.860000 -5.828173
127.880000 -5.373400
127.900000 -4.847027
127.920000 -4.358422
127.940000 -3.790557
127.960000 -3.173737
127.980000 -2.634817
128.000000 -1.982849
128.020000 -1.330082
128.040000 -0.662359
128.060000 -0.037529
128.080000 0.593127
128.100000 1.191504
128.120000 1.795050
128.140000 2.354876
128.160000 2.901343
128.180000 3.513711
128.200000 4.085692
128.220000 4.622609
128.240000 5.185110
128.260000 5.679289
128.280000 6.099838
128.300000 6.493515
128.320000 6.847688
128.340000 7.136353
128.360000 7.428100
128.380000 7.706823
128.400000 7.963826
128.420000 8.208269
128.440000 8.381057
128.460000 8.508361
128.480000 8.641715
128.500000 8.679917
128.520000 8.638088
128.540000 8.634322
128.560000 8.568996
128.580000 8.454308
128.600000 8.350249
128.620000 8.207653
128.640000 7.985210
128.660000 7.746970
128.680000 7.362816
128.700000 6.983017
128.720000 6.569609
128.740000 6.102219
128.760000 5.647025
128.780000 5.213131
128.800000 4.798856
128.820000 4.344698
128.840000 3.890233
128.860000 3.442630
128.880000 2.952918
128.900000 2.441557
128.920000 1.875359
128.940000 1.328219
128.960000 0.811425
128.980000 0.277715
129.000000 -0.242664
129.020000 -0.819729
129.040000 -1.315980
129.060000 -1.848290
129.080000 -2.465489
129.100000 -3.083667
129.120000 -3.699325
129.140000 -4.316342
129.160000 -4.938343
129.180000 -5.590914
129.200000 -6.129357
129.220000 -6.618803
129.240000 -7.127601
129.260000 -7.668551
129.280000 -8.131685
129.300000 -8.464671
129.320000 -8.800738
129.340000 -9.157053
129.360000 -9.344712
129.380000 -9.467536
129.400000 -9.464665
129.420000 -9.360480
129.440000 -9.285352
129.460000 -9.080049
129.480000 -8.950518
129.500000 -8.769608
129.520000 -8.537376
129.540000 -8.346706
129.560000 -8.028354
129.580000 -7.694486
129.600000 -7.308063
129.620000 -6.870556
129.640000 -6.471726
129.660000 -5.927317
129.680000 -5.375766
129.700000 -4.952991
129.720000 -4.389621
129.740000 -3.813859
129.760000 -3.261636
129.780000 -2.635826
129.800000 -2.031132
129.820000 -1.312984
129.840000 -0.673534
129.860000 -0.025010
129.880000 0.642152
129.900000 1.221388
129.920000 1.851637
129.940000 2.392811
129.960000 2.968182
129.980000 3.604719
130.000000 4.120799
130.020000 4.703507
130.040000 5.271819
130.060000 5.716776
130.080000 6.197232
130.100000 6.615960
130.120000 6.926135
130.140000 7.248002
130.160000 7.512652
130.180000 7.798013
130.200000 8.024377
130.220000 8.211910
130.240000 8.419188
130.260000 8.556071
130.280000 8.645048
130.300000 8.650818
130.320000 8.679062
130.340000 8.684580
130.360000 8.539407
130.380000 8.446550
130.400000 8.330841
130.420000 8.169858
130.440000 7.963798
130.460000 7.579868
130.480000 7.278516
130.500000 6.935657
130.520000 6.442571
130.540000 6.024598
130.560000 5.577345
130.580000 5.133704
130.600000 4.781463
130.620000 4.272455
130.640000 3.840661
130.660000 3.432813
130.680000 2.932627
130.700000 2.411282
130.720000 1.865500
130.740000 1.310757
130.760000 0.825975
130.780000 0.299714
130.800000 -0.310034
130.820000 -0.810697
130.840000 -1.325181
130.860000 -1.890931
130.880000 -2.529792
130.900000 -3.186970
130.920000 -3.804925
130.940000 -4.412377
130.960000 -5.104465
130.980000 -5.747780
131.000000 -6.238878
131.020000 -6.727245
131.040000 -7.254710
131.060000 -7.758481
131.080000 -8.159747
131.100000 -8.474711
131.120000 -8.830145
131.140000 -9.136048
131.160000 -9.325864
131.180000 -9.370997
131.200000 -9.394634
131.220000 -9.332011
131.240000 -9.139269
131.260000 -8.965725
131.280000 -8.815735
131.300000 -8.630513
131.320000 -8.447629
131.340000 -8.201856
131.360000 -7.886178
131.380000 -7.601139
131.400000 -7.200741
131.420000 -6.807877
131.440000 -6.378449
131.460000 -5.839684
131.480000 -5.374044
131.500000 -4.868774
131.520000 -4.330107
131.540000 -3.788569
131.560000 -3.207107
131.580000 -2.620478
131.600000 -1.986223
131.620000 -1.333429
131.640000 -0.689904
131.660000 -0.061237
131.680000 0.602243
131.700000 1.207188
131.720000 1.744399
131.740000 2.365197
131.760000 2.933999
131.780000 3.513445
131.800000 4.071423
131.820000 4.612905
131.840000 5.190404
131.860000 5.680816
131.880000 6.085849
131.900000 6.504676
131.920000 6.879448
131.940000 7.138916
131.960000 7.439414
131.980000 7.712102
132.000000 7.980266
132.020000 8.209571
132.040000 8.368188
132.060000 8.534702
132.080000 8.644572
132.100000 8.677956
132.120000 8.655355
132.140000 8.667902
132.160000 8.604256
132.180000 8.465945
132.200000 8.380637
132.220000 8.237368
132.240000 8.031169
132.260000 7.745472
132.280000 7.382701
132.300000 7.019061
132.320000 6.606998
132.340000 6.117385
132.360000 5.655988
132.380000 5.251318
132.400000 4.793212
132.420000 4.338327
132.440000 3.890779
132.460000 3.446130
132.480000 2.965143
132.500000 2.442593
132.520000 1.881366
132.540000 1.343581
132.560000 0.809647
132.580000 0.251374
132.600000 -0.256108
132.620000 -0.816116
132.640000 -1.336299
132.660000 -1.863946
132.680000 -2.489995
132.700000 -3.084970
132.720000 -3.702742
132.740000 -4.360284
132.760000 -4.947235
132.780000 -5.582162
132.800000 -6.167755
132.820000 -6.634795
132.840000 -7.179890
132.860000 -7.685930
132.880000 -8.112458
132.900000 -8.524283
132.920000 -8.828478
132.940000 -9.160582
132.960000 -9.378867
132.980000 -9.491272
133.000000 -9.517668
133.020000 -9.403835
133.040000 -9.270859
133.060000 -9.104737
133.080000 -8.954411
133.100000 -8.775251
133.120000 -8.541143
133.140000 -8.285638
133.160000 -8.046236
133.180000 -7.646874
133.200000 -7.264036
133.220000 -6.884643
133.240000 -6.410489
133.260000 -5.904603
133.280000 -5.391702
133.300000 -4.877176
133.320000 -4.354403
133.340000 -3.781749
133.360000 -3.220130
133.380000 -2.650669
133.400000 -1.982513
133.420000 -1.315616
133.440000 -0.701765
133.460000 -0.019857
133.480000 0.642180
133.500000 1.232604
133.520000 1.843473
133.540000 2.393735
133.560000 3.005402
133.580000 3.576250
133.600000 4.105451
133.620000 4.694082
133.640000 5.245759
133.660000 5.706694
133.680000 6.175569
133.700000 6.599801
133.720000 6.932619
133.740000 7.227922
133.760000 7.518099
133.780000 7.792509
133.800000 7.983599
133.820000 8.205581
133.840000 8.421610
133.860000 8.540051
133.880000 8.632949
133.900000 8.675519
133.920000 8.693234
133.940000 8.672285
133.960000 8.549993
133.980000 8.456913
134.000000 8.339887
134.020000 8.169914
134.040000 7.927390
134.060000 7.636358
134.080000 7.321422
134.100000 6.902455
134.120000 6.474750
134.140000 6.068261
134.160000 5.604763
134.180000 5.152119
134.200000 4.746721
134.220000 4.305419
134.240000 3.884562
134.260000 3.403756
134.280000 2.932263
134.300000 2.444246
134.320000 1.908589
134.340000 1.337770
134.360000 0.786233
134.380000 0.311099
134.400000 -0.241558
134.420000 -0.838886
134.440000 -1.329003
134.460000 -1.903366
134.480000 -2.513394
134.500000 -3.146682
134.520000 -3.833239
134.540000 -4.466150
134.560000 -5.077761
134.580000 -5.744041
134.600000 -6.275889
134.620000 -6.773792
134.640000 -7.288626
134.660000 -7.733527
134.680000 -8.194434
134.700000 -8.522967
134.720000 -8.851010
134.740000 -9.142784
134.760000 -9.326872
134.780000 -9.451754
134.800000 -9.434306
134.820000 -9.346029
134.840000 -9.195338
134.860000 -9.030183
134.880000 -8.837650
134.900000 -8.641631
134.920000 -8.475061
134.940000 -8.202276
134.960000 -7.925611
134.980000 -7.569100
135.000000 -7.192311
135.020000 -6.790092
135.040000 -6.327995
135.060000 -5.830568
135.080000 -5.310371
135.100000 -4.828095
135.120000 -4.290687
135.140000 -3.719112
135.160000 -3.146248
135.180000 -2.562350
135.200000 -1.927619
135.220000 -1.288674
135.240000 -0.634170
135.260000 0.027083
135.280000 0.594443
135.300000 1.244591
135.320000 1.842227
135.340000 2.349597
135.360000 2.954850
135.380000 3.507115
135.400000 4.099499
135.420000 4.610986
135.440000 5.114421
135.460000 5.649644
135.480000 6.074156
135.500000 6.466671
135.520000 6.784645
135.540000 7.097144
135.560000 7.415273
135.580000 7.660401
135.600000 7.876964
135.620000 8.143686
135.640000 8.338080
135.660000 8.484724
135.680000 8.582411
135.700000 8.606105
135.720000 8.658939
135.740000 8.633845
135.760000 8.547725
135.780000 8.464083
135.800000 8.347589
135.820000 8.243838
135.840000 8.008483
135.860000 7.716891
135.880000 7.424879
135.900000 7.028093
135.920000 6.602321
135.940000 6.151063
135.960000 5.716790
135.980000 5.274508
136.000000 4.828193
136.020000 4.388193
136.040000 3.942060
136.060000 3.484878
136.080000 2.987128
136.100000 2.469144
136.120000 1.952055
136.140000 1.371462
136.160000 0.832990
136.180000 0.311351
136.200000 -0.260393
136.220000 -0.776221
136.240000 -1.317017
136.260000 -1.875583
136.280000 -2.448040
136.300000 -3.093512
136.320000 -3.699787
136.340000 -4.344264
136.360000 -4.997437
136.380000 -5.571477
136.400000 -6.168175
136.420000 -6.708999
136.440000 -7.188600
136.460000 -7.713278
136.480000 -8.152522
136.500000 -8.522295
136.520000 -8.875474
136.540000 -9.160722
136.560000 -9.378797
136.580000 -9.535550
136.600000 -9.523395
136.620000 -9.420190
136.640000 -9.301890
136.660000 -9.125028
136.680000 -8.938181
136.700000 -8.782701
136.720000 -8.540359
136.740000 -8.279546
136.760000 -8.016073
136.780000 -7.656354
136.800000 -7.280294
136.820000 -6.866677
136.840000 -6.403319
136.860000 -5.905276
136.880000 -5.396575
136.900000 -4.866856
136.920000 -4.336156
136.940000 -3.799673
136.960000 -3.230787
136.980000 -2.630294
137.000000 -1.998350
137.020000 -1.330964
137.040000 -0.694819
137.060000 -0.039181
137.080000 0.611219
137.100000 1.223292
137.120000 1.813016
137.140000 2.395654
137.160000 2.945692
137.180000 3.572119
137.200000 4.095452
137.220000 4.637229
137.240000 5.229991
137.260000 5.696597
137.280000 6.167237
137.300000 6.577255
137.320000 6.915969
137.340000 7.241841
137.360000 7.520326
137.380000 7.792103
137.400000 8.019812
137.420000 8.213254
137.440000 8.438232
137.460000 8.563983
137.480000 8.668910
137.500000 8.691693
137.520000 8.701818
137.540000 8.722263
137.560000 8.583503
137.580000 8.470916
137.600000 8.368426
137.620000 8.202668
137.640000 7.966907
137.660000 7.630490
137.680000 7.337932
137.700000 6.934075
137.720000 6.468855
137.740000 6.056064
137.760000 5.596809
137.780000 5.169077
137.800000 4.721795
137.820000 4.274177
137.840000 3.864159
137.860000 3.394906
137.880000 2.911356
137.900000 2.412934
137.920000 1.890412
137.940000 1.346858
137.960000 0.802897
137.980000 0.265924
138.000000 -0.252215
138.020000 -0.799452
138.040000 -1.344547
138.060000 -1.871718
138.080000 -2.534945
138.100000 -3.113032
138.120000 -3.751740
138.140000 -4.459484
138.160000 -5.053647
138.180000 -5.699762
138.200000 -6.218167
138.220000 -6.746892
138.240000 -7.294508
138.260000 -7.726847
138.280000 -8.145226
138.300000 -8.527686
138.320000 -8.857563
138.340000 -9.145823
138.360000 -9.325864
138.380000 -9.427332
138.400000 -9.454597
138.420000 -9.346855
138.440000 -9.189653
138.460000 -9.021879
138.480000 -8.856219
138.500000 -8.703470
138.520000 -8.482357
138.540000 -8.218576
138.560000 -7.936870
138.580000 -7.632045
138.600000 -7.258211
138.620000 -6.810705
138.640000 -6.374038
138.660000 -5.893429
138.680000 -5.364746
138.700000 -4.836805
138.720000 -4.341674
138.740000 -3.785012
138.760000 -3.196842
138.780000 -2.597778
138.800000 -1.951985
138.820000 -1.329760
138.840000 -0.668675
138.860000 0.017168
138.880000 0.619019
138.900000 1.225869
138.920000 1.825395
138.940000 2.372492
138.960000 2.965619
138.980000 3.531943
139.000000 4.058232
139.020000 4.629779
139.040000 5.208272
139.060000 5.673114
139.080000 6.090918
139.100000 6.494803
139.120000 6.881506
139.140000 7.132671
139.160000 7.403762
139.180000 7.692077
139.200000 7.960858
139.220000 8.207303
139.240000 8.326640
139.260000 8.541129
139.280000 8.663323
139.300000 8.683445
139.320000 8.694032
139.340000 8.646981
139.360000 8.597409
139.380000 8.534198
139.400000 8.362614
139.420000 8.215887
139.440000 8.022571
139.460000 7.769390
139.480000 7.436124
139.500000 6.989752
139.520000 6.574090
139.540000 6.181534
139.560000 5.721019
139.580000 5.204211
139.600000 4.776940
139.620000 4.396525
139.640000 3.917092
139.660000 3.435572
139.680000 2.930456
139.700000 2.421406
139.720000 1.933711
139.740000 1.333527
139.760000 0.745973
139.780000 0.279787
139.800000 -0.264650
139.820000 -0.812027
139.840000 -1.309973
139.860000 -1.912230
139.880000 -2.445786
139.900000 -3.048337
139.920000 -3.696161
139.940000 -4.355411
139.960000 -4.958606
139.980000 -5.514764
140.000000 -6.144495
140.020000 -6.659581
140.040000 -7.179274
140.060000 -7.654492
140.080000 -8.083639
140.100000 -8.520096
140.120000 -8.845296
140.140000 -9.111892
140.160000 -9.372047
140.180000 -9.506325
140.200000 -9.499254
140.220000 -9.414113
140.240000 -9.285198
140.260000 -9.096713
140.280000 -8.949691
140.300000 -8.785642
140.320000 -8.560188
140.340000 -8.296952
140.360000 -8.051852
140.380000 -7.721652
140.400000 -7.311045
140.420000 -6.877823
140.440000 -6.424576
140.460000 -5.990738
140.480000 -5.410355
140.500000 -4.878269
140.520000 -4.421689
140.540000 -3.827274
140.560000 -3.263793
140.580000 -2.636554
140.600000 -2.004652
140.620000 -1.391374
140.640000 -0.635893
140.660000 -0.028763
140.680000 0.620167
140.700000 1.249100
140.720000 1.831556
140.740000 2.421686
140.760000 2.981653
140.780000 3.578994
140.800000 4.120995
140.820000 4.677138
140.840000 5.250016
140.860000 5.734266
140.880000 6.149942
140.900000 6.605276
140.920000 6.964854
140.940000 7.250761
140.960000 7.513268
140.980000 7.764713
141.000000 8.055885
141.020000 8.270108
141.040000 8.384516
141.060000 8.572077
141.080000 8.698093
141.100000 8.734516
141.120000 8.673965
141.140000 8.682381
141.160000 8.625205
141.180000 8.478352
141.200000 8.372263
141.220000 8.160644
141.240000 7.963000
141.260000 7.716079
141.280000 7.291987
141.300000 6.926751
141.320000 6.526899
141.340000 6.036851
141.360000 5.658704
141.380000 5.160647
141.400000 4.717440
141.420000 4.372215
141.440000 3.871511
141.460000 3.447293
141.480000 2.935190
141.500000 2.403608
141.520000 1.957194
141.540000 1.320517
141.560000 0.786653
141.580000 0.255925
141.600000 -0.246683
141.620000 -0.796470
141.640000 -1.412338
141.660000 -1.893059
141.680000 -2.527720
141.700000 -3.180262
141.720000 -3.803146
141.740000 -4.500584
141.760000 -5.135034
141.780000 -5.694553
141.800000 -6.336985
141.820000 -6.793145
141.840000 -7.232417
141.860000 -7.845344
141.880000 -8.102782
141.900000 -8.518290
141.920000 -8.871090
141.940000 -9.049549
141.960000 -9.372761
141.980000 -9.344180
142.000000 -9.396343
142.020000 -9.358128
142.040000 -9.093702
142.060000 -8.993998
142.080000 -8.811772
142.100000 -8.637920
142.120000 -8.443470
142.140000 -8.203340
142.160000 -7.916705
142.180000 -7.618713
142.200000 -7.185043
142.220000 -6.824176
142.240000 -6.395323
142.260000 -5.836155
142.280000 -5.360531
142.300000 -4.824860
142.320000 -4.373629
142.340000 -3.739067
142.360000 -3.164705
142.380000 -2.652042
142.400000 -1.928348
142.420000 -1.315742
142.440000 -0.662877
142.460000 0.020501
142.480000 0.612227
142.500000 1.239312
142.520000 1.832761
142.540000 2.368963
142.560000 2.939839
142.580000 3.535584
142.600000 4.032479
142.620000 4.655783
142.640000 5.201648
142.660000 5.620643
142.680000 6.102261
142.700000 6.513484
142.720000 6.823294
142.740000 7.100575
142.760000 7.406268
142.780000 7.688366
142.800000 7.962608
142.820000 8.161624
142.840000 8.345978
142.860000 8.567105
142.880000 8.642486
142.900000 8.669694
142.920000 8.699451
142.940000 8.668658
142.960000 8.585058
142.980000 8.490115
143.000000 8.407663
143.020000 8.232075
143.040000 8.034291
143.060000 7.762472
143.080000 7.457451
143.100000 7.055834
143.120000 6.593527
143.140000 6.194851
143.160000 5.741968
143.180000 5.241838
143.200000 4.823179
143.220000 4.404871
143.240000 3.954453
143.260000 3.497481
143.280000 2.956629
143.300000 2.478162
143.320000 1.939158
143.340000 1.325769
143.360000 0.793487
143.380000 0.290346
143.400000 -0.260505
143.420000 -0.832024
143.440000 -1.314090
143.460000 -1.853093
143.480000 -2.502318
143.500000 -3.080727
143.520000 -3.694214
143.540000 -4.356797
143.560000 -4.984148
143.580000 -5.611373
143.600000 -6.144383
143.620000 -6.631406
143.640000 -7.214184
143.660000 -7.684585
143.680000 -8.085236
143.700000 -8.506457
143.720000 -8.825958
143.740000 -9.164209
143.760000 -9.360732
143.780000 -9.481203
143.800000 -9.533436
143.820000 -9.386232
143.840000 -9.262555
143.860000 -9.124789
143.880000 -8.939413
143.900000 -8.785782
143.920000 -8.558605
143.940000 -8.304192
143.960000 -8.074383
143.980000 -7.694710
144.000000 -7.305556
144.020000 -6.930700
144.040000 -6.453059
144.060000 -5.942440
144.080000 -5.392150
144.100000 -4.894176
144.120000 -4.402938
144.140000 -3.775854
144.160000 -3.242647
144.180000 -2.644690
144.200000 -1.976141
144.220000 -1.331580
144.240000 -0.642713
144.260000 0.024100
144.280000 0.650120
144.300000 1.269741
144.320000 1.886365
144.340000 2.417485
144.360000 3.013062
144.380000 3.577090
144.400000 4.119188
144.420000 4.706321
144.440000 5.241810
144.460000 5.716608
144.480000 6.183368
144.500000 6.613398
144.520000 6.947574
144.540000 7.219225
144.560000 7.516853
144.580000 7.783099
144.600000 8.023313
144.620000 8.213646
144.640000 8.432491
144.660000 8.576376
144.680000 8.653296
144.700000 8.705039
144.720000 8.707125
144.740000 8.679917
144.760000 8.564473
144.780000 8.470706
144.800000 8.340377
144.820000 8.180781
144.840000 7.937808
144.860000 7.657167
144.880000 7.339290
144.900000 6.914736
144.920000 6.501315
144.940000 6.085961
144.960000 5.602341
144.980000 5.149178
145.000000 4.777907
145.020000 4.307253
145.040000 3.858684
145.060000 3.429410
145.080000 2.959387
145.100000 2.442243
145.120000 1.855362
145.140000 1.341550
145.160000 0.846349
145.180000 0.259987
145.200000 -0.302515
145.220000 -0.793389
145.240000 -1.311821
145.260000 -1.906236
145.280000 -2.549957
145.300000 -3.164187
145.320000 -3.772213
145.340000 -4.479047
145.360000 -5.128929
145.380000 -5.691570
145.400000 -6.247840
145.420000 -6.769451
145.440000 -7.231156
145.460000 -7.721078
145.480000 -8.142873
145.500000 -8.454168
145.520000 -8.809910
145.540000 -9.101250
145.560000 -9.290575
145.580000 -9.407083
145.600000 -9.353492
145.620000 -9.264333
145.640000 -9.169992
145.660000 -8.937452
145.680000 -8.758209
145.700000 -8.644194
145.720000 -8.459308
145.740000 -8.179422
145.760000 -7.915039
145.780000 -7.619792
145.800000 -7.265423
145.820000 -6.836513
145.840000 -6.406120
145.860000 -5.889032
145.880000 -5.375472
145.900000 -4.892804
145.920000 -4.327796
145.940000 -3.816884
145.960000 -3.201590
145.980000 -2.613014
146.000000 -2.026861
146.020000 -1.303251
146.040000 -0.667190
146.060000 -0.027923
146.080000 0.603027
146.100000 1.210997
146.120000 1.828013
146.140000 2.354946
146.160000 2.911412
146.180000 3.517716
146.200000 4.085244
146.220000 4.591368
146.240000 5.166598
146.260000 5.678169
146.280000 6.082558
146.300000 6.511103
146.320000 6.841429
146.340000 7.120992
146.360000 7.460209
146.380000 7.715673
146.400000 7.934713
146.420000 8.230941
146.440000 8.409470
146.460000 8.531355
146.480000 8.693808
146.500000 8.678572
146.520000 8.714407
146.540000 8.707209
146.560000 8.563927
146.580000 8.501024
146.600000 8.399037
146.620000 8.237130
146.640000 8.031505
146.660000 7.754126
146.680000 7.457717
146.700000 7.062318
146.720000 6.603665
146.740000 6.177375
146.760000 5.726215
146.780000 5.281888
146.800000 4.837715
146.820000 4.372397
146.840000 3.970654
146.860000 3.481573
146.880000 3.000963
146.900000 2.447186
146.920000 1.896770
146.940000 1.385395
146.960000 0.781556
146.980000 0.257886
147.000000 -0.277841
147.020000 -0.839026
147.040000 -1.333275
147.060000 -1.904640
147.080000 -2.527075
147.100000 -3.105765
147.120000 -3.754373
147.140000 -4.428397
147.160000 -5.035344
147.180000 -5.666672
147.200000 -6.225168
147.220000 -6.728800
147.240000 -7.242485
147.260000 -7.701571
147.280000 -8.155603
147.300000 -8.527672
147.320000 -8.846277
147.340000 -9.121303
147.360000 -9.388151
147.380000 -9.497531
147.400000 -9.434740
147.420000 -9.383404
147.440000 -9.263283
147.460000 -9.095074
147.480000 -8.881047
147.500000 -8.705781
147.520000 -8.545204
147.540000 -8.297653
147.560000 -7.982577
147.580000 -7.664644
147.600000 -7.306648
147.620000 -6.890790
147.640000 -6.415460
147.660000 -5.929501
147.680000 -5.404809
147.700000 -4.880649
147.720000 -4.368378
147.740000 -3.796173
147.760000 -3.206589
147.780000 -2.621976
147.800000 -1.958483
147.820000 -1.322366
147.840000 -0.640528
147.860000 0.062735
147.880000 0.620419
147.900000 1.259855
147.920000 1.886477
147.940000 2.414909
147.960000 2.991917
147.980000 3.557261
148.000000 4.133640
148.020000 4.674716
148.040000 5.194899
148.060000 5.713415
148.080000 6.171578
148.100000 6.581106
148.120000 6.878706
148.140000 7.262440
148.160000 7.522930
148.180000 7.727128
148.200000 8.054106
148.220000 8.230801
148.240000 8.421750
148.260000 8.580787
148.280000 8.643438
148.300000 8.754442
148.320000 8.737960
148.340000 8.635008
148.360000 8.640385
148.380000 8.488350
148.400000 8.317930
148.420000 8.211560
148.440000 7.925877
148.460000 7.657223
148.480000 7.298568
148.500000 6.857448
148.520000 6.527669
148.540000 6.019865
148.560000 5.555331
148.580000 5.157580
148.600000 4.726724
148.620000 4.314521
148.640000 3.810750
148.660000 3.429494
148.680000 2.942177
148.700000 2.386720
148.720000 1.883411
148.740000 1.319299
148.760000 0.798668
148.780000 0.283638
148.800000 -0.304335
148.820000 -0.782760
148.840000 -1.318277
148.860000 -1.906054
148.880000 -2.493607
148.900000 -3.129332
148.920000 -3.814377
148.940000 -4.435874
148.960000 -5.080687
148.980000 -5.700364
149.000000 -6.241202
149.020000 -6.747816
149.040000 -7.185211
149.060000 -7.719286
149.080000 -8.134009
149.100000 -8.469474
149.120000 -8.760716
149.140000 -9.094038
149.160000 -9.322979
149.180000 -9.337795
149.200000 -9.356573
149.220000 -9.292200
149.240000 -9.139269
149.260000 -8.964773
149.280000 -8.767424
149.300000 -8.653002
149.320000 -8.461632
149.340000 -8.192361
149.360000 -7.963994
149.380000 -7.629118
149.400000 -7.213442
149.420000 -6.845812
149.440000 -6.432894
149.460000 -5.868937
149.480000 -5.365250
149.500000 -4.901150
149.520000 -4.370535
149.540000 -3.781917
149.560000 -3.190177
149.580000 -2.612888
149.600000 -2.000479
149.620000 -1.302327
149.640000 -0.620699
149.660000 -0.049236
149.680000 0.612451
149.700000 1.221570
149.720000 1.798354
149.740000 2.354666
149.760000 2.891135
149.780000 3.520698
149.800000 4.018378
149.820000 4.589743
149.840000 5.185306
149.860000 5.608866
149.880000 6.106266
149.900000 6.468841
149.920000 6.832957
149.940000 7.133917
149.960000 7.393357
149.980000 7.738344
150.000000 7.978516
150.020000 8.197767
150.040000 8.427142
150.060000 8.556729
150.080000 8.672439
150.100000 8.721899
150.120000 8.687100
150.140000 8.729572
150.160000 8.623623
150.180000 8.466701
150.200000 8.447839
150.220000 8.259718
150.240000 8.032611
150.260000 7.784191
150.280000 7.405400
150.300000 7.049407
150.320000 6.591791
150.340000 6.151623
150.360000 5.724002
150.380000 5.246655
150.400000 4.849772
150.420000 4.382550
150.440000 3.951092
150.460000 3.489121
150.480000 2.952666
150.500000 2.498579
150.520000 1.918545
150.540000 1.332490
150.560000 0.818077
150.580000 0.301338
150.600000 -0.226784
150.620000 -0.800909
150.640000 -1.318599
150.660000 -1.824765
150.680000 -2.457157
150.700000 -3.110358
150.720000 -3.685616
150.740000 -4.352148
150.760000 -4.957780
150.780000 -5.586097
150.800000 -6.164184
150.820000 -6.630510
150.840000 -7.155300
150.860000 -7.686504
150.880000 -8.116239
150.900000 -8.490045
150.920000 -8.834612
150.940000 -9.141425
150.960000 -9.362553
150.980000 -9.487365
151.000000 -9.480111
151.020000 -9.373755
151.040000 -9.282089
151.060000 -9.115197
151.080000 -8.936570
151.100000 -8.768516
151.120000 -8.580997
151.140000 -8.352238
151.160000 -8.054708
151.180000 -7.715127
151.200000 -7.344878
151.220000 -6.946776
151.240000 -6.481192
151.260000 -5.973500
151.280000 -5.459730
151.300000 -4.940906
151.320000 -4.428649
151.340000 -3.840423
151.360000 -3.237032
151.380000 -2.654394
151.400000 -1.968355
151.420000 -1.329101
151.440000 -0.632560
151.460000 0.033160
151.480000 0.624018
151.500000 1.277555
151.520000 1.891645
151.540000 2.434835
151.560000 3.004590
151.580000 3.562554
151.600000 4.179011
151.620000 4.721851
151.640000 5.202209
151.660000 5.767552
151.680000 6.192695
151.700000 6.606984
151.720000 6.961647
151.740000 7.229616
151.760000 7.614288
151.780000 7.804496
151.800000 8.038338
151.820000 8.312384
151.840000 8.441775
151.860000 8.633369
151.880000 8.685084
151.900000 8.725007
151.920000 8.767396
151.940000 8.678530
151.960000 8.602240
151.980000 8.506023
152.000000 8.344760
152.020000 8.207975
152.040000 7.956083
152.060000 7.612384
152.080000 7.307293
152.100000 6.874449
152.120000 6.485799
152.140000 6.045729
152.160000 5.533626
152.180000 5.189101
152.200000 4.747659
152.220000 4.281053
152.240000 3.846487
152.260000 3.412102
152.280000 2.961656
152.300000 2.407053
152.320000 1.866607
152.340000 1.362275
152.360000 0.833648
152.380000 0.270517
152.400000 -0.255856
152.420000 -0.777593
152.440000 -1.318585
152.460000 -1.883901
152.480000 -2.500693
152.500000 -3.127834
152.520000 -3.786104
152.540000 -4.443352
152.560000 -5.067454
152.580000 -5.684022
152.600000 -6.289780
152.620000 -6.734037
152.640000 -7.240202
152.660000 -7.775453
152.680000 -8.143420
152.700000 -8.536186
152.720000 -8.843420
152.740000 -9.128416
152.760000 -9.372957
152.780000 -9.389131
152.800000 -9.399984
152.820000 -9.368560
152.840000 -9.170132
152.860000 -8.989811
152.880000 -8.825468
152.900000 -8.676276
152.920000 -8.491389
152.940000 -8.190961
152.960000 -7.929336
152.980000 -7.643051
153.000000 -7.232557
153.020000 -6.831430
153.040000 -6.388686
153.060000 -5.899128
153.080000 -5.370375
153.100000 -4.829705
153.120000 -4.344992
153.140000 -3.759736
153.160000 -3.149861
153.180000 -2.584811
153.200000 -1.936189
153.220000 -1.284487
153.240000 -0.614986
153.260000 0.046771
153.280000 0.620615
153.300000 1.274586
153.320000 1.865963
153.340000 2.366331
153.360000 2.958295
153.380000 3.559936
153.400000 4.056299
153.420000 4.635212
153.440000 5.184382
153.460000 5.649798
153.480000 6.118253
153.500000 6.472818
153.520000 6.834679
153.540000 7.160201
153.560000 7.412150
153.580000 7.692595
153.600000 7.982507
153.620000 8.169606
153.640000 8.357559
153.660000 8.553326
153.680000 8.623973
153.700000 8.678404
153.720000 8.667089
153.740000 8.655285
153.760000 8.616495
153.780000 8.454476
153.800000 8.345572
153.820000 8.235366
153.840000 8.010234
153.860000 7.691363
153.880000 7.384311
153.900000 7.009581
153.920000 6.563798
153.940000 6.146680
153.960000 5.692985
153.980000 5.256346
154.000000 4.828711
154.020000 4.371557
154.040000 3.971061
154.060000 3.490577
154.080000 2.954444
154.100000 2.504656
154.120000 1.963174
154.140000 1.363508
154.160000 0.819561
154.180000 0.320089
154.200000 -0.194101
154.220000 -0.784399
154.240000 -1.332518
154.260000 -1.816503
154.280000 -2.420090
154.300000 -3.073123
154.320000 -3.723257
154.340000 -4.317574
154.360000 -4.943118
154.380000 -5.607494
154.400000 -6.134777
154.420000 -6.649680
154.440000 -7.196358
154.460000 -7.654380
154.480000 -8.123437
154.500000 -8.521777
154.520000 -8.824809
154.540000 -9.189751
154.560000 -9.344082
154.580000 -9.491342
154.600000 -9.567198
154.620000 -9.420779
154.640000 -9.290267
154.660000 -9.159028
154.680000 -8.966467
154.700000 -8.767900
154.720000 -8.591541
154.740000 -8.323153
154.760000 -8.068516
154.780000 -7.707495
154.800000 -7.302783
154.820000 -6.959925
154.840000 -6.449530
154.860000 -5.970181
154.880000 -5.431738
154.900000 -4.902326
154.920000 -4.376304
154.940000 -3.800107
154.960000 -3.240785
154.980000 -2.584139
155.000000 -1.971478
155.020000 -1.329031
155.040000 -0.649518
155.060000 0.030639
155.080000 0.638876
155.100000 1.252783
155.120000 1.852547
155.140000 2.420986
155.160000 3.031673
155.180000 3.525081
155.200000 4.146971
155.220000 4.718644
155.240000 5.199198
155.260000 5.747822
155.280000 6.176409
155.300000 6.593751
155.320000 6.965050
155.340000 7.241869
155.360000 7.567209
155.380000 7.829492
155.400000 8.049317
155.420000 8.294376
155.440000 8.458677
155.460000 8.590477
155.480000 8.752146
155.500000 8.753952
155.520000 8.769230
155.540000 8.735020
155.560000 8.653380
155.580000 8.576894
155.600000 8.359800
155.620000 8.211210
155.640000 7.990629
155.660000 7.689879
155.680000 7.299465
155.700000 6.901083
155.720000 6.521256
155.740000 6.067799
155.760000 5.586965
155.780000 5.167284
155.800000 4.757602
155.820000 4.317756
155.840000 3.852466
155.860000 3.413124
155.880000 2.926802
155.900000 2.395486
155.920000 1.902651
155.940000 1.333036
155.960000 0.794663
155.980000 0.272926
156.000000 -0.289464
156.020000 -0.769149
156.040000 -1.367233
156.060000 -1.965344
156.080000 -2.470138
156.100000 -3.153642
156.120000 -3.830495
156.140000 -4.486595
156.160000 -5.111117
156.180000 -5.653607
156.200000 -6.267361
156.220000 -6.816209
156.240000 -7.219113
156.260000 -7.732645
156.280000 -8.149595
156.300000 -8.511932
156.320000 -8.838799
156.340000 -9.049955
156.360000 -9.333090
156.380000 -9.389397
156.400000 -9.364891
156.420000 -9.342122
156.440000 -9.159434
156.460000 -9.008632
156.480000 -8.809434
156.500000 -8.645188
156.520000 -8.504104
156.540000 -8.170740
156.560000 -7.930904
156.580000 -7.616515
156.600000 -7.208653
156.620000 -6.848696
156.640000 -6.367541
156.660000 -5.885321
156.680000 -5.373190
156.700000 -4.814651
156.720000 -4.358604
156.740000 -3.739473
156.760000 -3.119278
156.780000 -2.564717
156.800000 -1.928754
156.820000 -1.276309
156.840000 -0.572808
156.860000 0.033552
156.880000 0.581294
156.900000 1.283100
156.920000 1.878426
156.940000 2.359203
156.960000 2.930835
156.980000 3.543832
157.000000 4.099303
157.020000 4.597081
157.040000 5.145145
157.060000 5.695841
157.080000 6.077237
157.100000 6.457638
157.120000 6.833531
157.140000 7.121720
157.160000 7.427483
157.180000 7.649409
157.200000 7.975295
157.220000 8.217959
157.240000 8.311474
157.260000 8.538188
157.280000 8.662356
157.300000 8.673727
157.320000 8.642626
157.340000 8.682115
157.360000 8.674021
157.380000 8.494246
157.400000 8.352546
157.420000 8.256721
157.440000 8.080124
157.460000 7.720882
157.480000 7.395122
157.500000 7.036608
157.520000 6.631042
157.540000 6.189586
157.560000 5.690688
157.580000 5.308900
157.600000 4.858118
157.620000 4.418678
157.640000 3.984028
157.660000 3.490983
157.680000 3.001131
157.700000 2.494826
157.720000 1.987414
157.740000 1.372036
157.760000 0.816494
157.780000 0.358164
157.800000 -0.170827
157.820000 -0.783390
157.840000 -1.334227
157.860000 -1.790274
157.880000 -2.402095
157.900000 -3.099743
157.920000 -3.721381
157.940000 -4.324029
157.960000 -4.914313
157.980000 -5.615602
158.000000 -6.193535
158.020000 -6.603175
158.040000 -7.148858
158.060000 -7.694444
158.080000 -8.128352
158.100000 -8.467065
158.120000 -8.814867
158.140000 -9.168102
158.160000 -9.379651
158.180000 -9.472087
158.200000 -9.525482
158.220000 -9.466444
158.240000 -9.318904
158.260000 -9.149043
158.280000 -8.954369
158.300000 -8.817066
158.320000 -8.630247
158.340000 -8.312664
158.360000 -8.071176
158.380000 -7.708965
158.400000 -7.306886
158.420000 -6.945964
158.440000 -6.436815
158.460000 -5.936853
158.480000 -5.428643
158.500000 -4.900702
158.520000 -4.373055
158.540000 -3.780321
158.560000 -3.178638
158.580000 -2.641497
158.600000 -1.949479
158.620000 -1.275020
158.640000 -0.668381
158.660000 0.024142
158.680000 0.610645
158.700000 1.269573
158.720000 1.884279
158.740000 2.383037
158.760000 3.014715
158.780000 3.580703
158.800000 4.117900
158.820000 4.702526
158.840000 5.210050
158.860000 5.719675
158.880000 6.156720
158.900000 6.574384
158.920000 6.947700
158.940000 7.215332
158.960000 7.512414
158.980000 7.830780
159.000000 8.002770
159.020000 8.249747
159.040000 8.446452
159.060000 8.562190
159.080000 8.726576
159.100000 8.701132
159.120000 8.730679
159.140000 8.756963
159.160000 8.605209
159.180000 8.520446
159.200000 8.384474
159.220000 8.214543
159.240000 8.002532
159.260000 7.664308
159.280000 7.347160
159.300000 6.971772
159.320000 6.534139
159.340000 6.093425
159.360000 5.679905
159.380000 5.215512
159.400000 4.779727
159.420000 4.391806
159.440000 3.908410
159.460000 3.465581
159.480000 2.995684
159.500000 2.420846
159.520000 1.954520
159.540000 1.395940
159.560000 0.773644
159.580000 0.371607
159.600000 -0.208958
159.620000 -0.814058
159.640000 -1.287287
159.660000 -1.880834
159.680000 -2.508815
159.700000 -3.122807
159.720000 -3.831629
159.740000 -4.428102
159.760000 -5.087465
159.780000 -5.735359
159.800000 -6.247994
159.820000 -6.774352
159.840000 -7.248941
159.860000 -7.795982
159.880000 -8.180388
159.900000 -8.470440
159.920000 -8.884170
159.940000 -9.140193
159.960000 -9.337823
159.980000 -9.426744
160.000000 -9.375548
160.020000 -9.365493
160.040000 -9.204875
160.060000 -8.972839
160.080000 -8.825285
160.100000 -8.678418
160.120000 -8.463074
160.140000 -8.220886
160.160000 -7.893305
160.180000 -7.589180
160.200000 -7.228174
160.220000 -6.799601
160.240000 -6.339142
160.260000 -5.844669
160.280000 -5.341612
160.300000 -4.809358
160.320000 -4.303795
160.340000 -3.711690
160.360000 -3.152438
160.380000 -2.595734
160.400000 -1.896700
160.420000 -1.288044
160.440000 -0.661575
160.460000 0.022545
160.480000 0.589262
160.500000 1.235937
160.520000 1.826095
160.540000 2.354442
160.560000 2.960480
160.580000 3.507437
160.600000 4.061900
160.620000 4.623001
160.640000 5.138241
160.660000 5.649952
160.680000 6.079071
160.700000 6.454978
160.720000 6.852379
160.740000 7.121580
160.760000 7.448348
160.780000 7.720952
160.800000 7.983151
160.820000 8.219752
160.840000 8.427534
160.860000 8.537936
160.880000 8.676752
160.900000 8.752202
160.920000 8.687590
160.940000 8.697967
160.960000 8.620290
160.980000 8.529184
161.000000 8.394178
161.020000 8.249215
161.040000 8.043940
161.060000 7.754896
161.080000 7.443321
161.100000 7.017115
161.120000 6.597364
161.140000 6.192022
161.160000 5.752471
161.180000 5.258894
161.200000 4.829397
161.220000 4.443940
161.240000 3.955503
161.260000 3.502522
161.280000 2.947779
161.300000 2.509543
161.320000 1.970302
161.340000 1.313796
161.360000 0.857300
161.380000 0.322063
161.400000 -0.231182
161.420000 -0.799984
161.440000 -1.305506
161.460000 -1.813814
161.480000 -2.475095
161.500000 -3.084886
161.520000 -3.623455
161.540000 -4.338761
161.560000 -4.994455
161.580000 -5.529285
161.600000 -6.120871
161.620000 -6.652439
161.640000 -7.206734
161.660000 -7.670246
161.680000 -8.069720
161.700000 -8.567413
161.720000 -8.857381
161.740000 -9.145626
161.760000 -9.406243
161.780000 -9.504869
161.800000 -9.594112
161.820000 -9.446769
161.840000 -9.348227
161.860000 -9.195605
161.880000 -8.931725
161.900000 -8.826014
161.920000 -8.622769
161.940000 -8.267181
161.960000 -8.074047
161.980000 -7.709497
162.000000 -7.273278
162.020000 -6.886926
162.040000 -6.412491
162.060000 -5.977813
162.080000 -5.390708
162.100000 -4.817158
162.120000 -4.411635
162.140000 -3.800178
162.160000 -3.165811
162.180000 -2.578188
162.200000 -1.986392
162.220000 -1.372708
162.240000 -0.600198
162.260000 0.044069
162.280000 0.581420
162.300000 1.236917
162.320000 1.915703
162.340000 2.429668
162.360000 2.979482
162.380000 3.574009
162.400000 4.162375
162.420000 4.691086
162.440000 5.175756
162.460000 5.709915
162.480000 6.164338
162.500000 6.579132
162.520000 6.914246
162.540000 7.246028
162.560000 7.549803
162.580000 7.756717
162.600000 8.034781
162.620000 8.278132
162.640000 8.404946
162.660000 8.554600
162.680000 8.689915
162.700000 8.752790
162.720000 8.704899
162.740000 8.650509
162.760000 8.642906
162.780000 8.540611
162.800000 8.302162
162.820000 8.184393
162.840000 7.982017
162.860000 7.669294
162.880000 7.320092
162.900000 6.891071
162.920000 6.552371
162.940000 6.093999
162.960000 5.604525
162.980000 5.218046
163.000000 4.805087
163.020000 4.326886
163.040000 3.915341
163.060000 3.470748
163.080000 2.986890
163.100000 2.429836
163.120000 1.930504
163.140000 1.433553
163.160000 0.804199
163.180000 0.316126
163.200000 -0.178123
163.220000 -0.757428
163.240000 -1.271072
163.260000 -1.871536
163.280000 -2.418731
163.300000 -3.084872
163.320000 -3.801074
163.340000 -4.369946
163.360000 -5.041982
163.380000 -5.704019
163.400000 -6.208602
163.420000 -6.710623
163.440000 -7.250747
163.460000 -7.739703
163.480000 -8.180444
163.500000 -8.470146
163.520000 -8.861176
163.540000 -9.189261
163.560000 -9.331521
163.580000 -9.463657
163.600000 -9.492812
163.620000 -9.341646
163.640000 -9.232755
163.660000 -9.086462
163.680000 -8.840829
163.700000 -8.681163
163.720000 -8.512548
163.740000 -8.243614
163.760000 -7.943606
163.780000 -7.600299
163.800000 -7.227739
163.820000 -6.826949
163.840000 -6.373226
163.860000 -5.838283
163.880000 -5.334764
163.900000 -4.839591
163.920000 -4.309130
163.940000 -3.743422
163.960000 -3.153726
163.980000 -2.563652
164.000000 -1.959029
164.020000 -1.297062
164.040000 -0.579781
164.060000 -0.008598
164.080000 0.604315
164.100000 1.242575
164.120000 1.813842
164.140000 2.391733
164.160000 2.886864
164.180000 3.509776
164.200000 4.071787
164.220000 4.581019
164.240000 5.122599
164.260000 5.609833
164.280000 6.063766
164.300000 6.447220
164.320000 6.785681
164.340000 7.078702
164.360000 7.405932
164.380000 7.683577
164.400000 7.923231
164.420000 8.175599
164.440000 8.366059
164.460000 8.546352
164.480000 8.646056
164.500000 8.681709
164.520000 8.673811
164.540000 8.707293
164.560000 8.613205
164.580000 8.449379
164.600000 8.449183
164.620000 8.240603
164.640000 8.050059
164.660000 7.787328
164.680000 7.410175
164.700000 7.095534
164.720000 6.629796
164.740000 6.172740
164.760000 5.766026
164.780000 5.279465
164.800000 4.893280
164.820000 4.440916
164.840000 3.921027
164.860000 3.533511
164.880000 3.059764
164.900000 2.477966
164.920000 1.931386
164.940000 1.394413
164.960000 0.918397
164.980000 0.315440
165.000000 -0.271651
165.020000 -0.699384
165.040000 -1.240586
165.060000 -1.795918
165.080000 -2.436740
165.100000 -3.053560
165.120000 -3.567974
165.140000 -4.313583
165.160000 -4.987187
165.180000 -5.519987
165.200000 -6.112539
165.220000 -6.607012
165.240000 -7.181640
165.260000 -7.707579
165.280000 -8.054638
165.300000 -8.498377
165.320000 -8.911672
165.340000 -9.176938
165.360000 -9.374484
165.380000 -9.559888
165.400000 -9.613227
165.420000 -9.497615
165.440000 -9.382633
165.460000 -9.181307
165.480000 -9.008478
165.500000 -8.857857
165.520000 -8.533609
165.540000 -8.425041
165.560000 -8.067521
165.580000 -7.645712
165.600000 -7.408061
165.620000 -6.893703
165.640000 -6.432236
165.660000 -6.023926
165.680000 -5.357184
165.700000 -4.946843
165.720000 -4.405837
165.740000 -3.753070
165.760000 -3.251078
165.780000 -2.620422
165.800000 -1.950221
165.820000 -1.332742
165.840000 -0.636551
165.860000 0.012813
165.880000 0.666994
165.900000 1.246384
165.920000 1.872124
165.940000 2.459635
165.960000 2.947989
165.980000 3.624617
166.000000 4.120168
166.020000 4.663331
166.040000 5.273990
166.060000 5.639940
166.080000 6.219455
166.100000 6.608175
166.120000 6.826361
166.140000 7.289564
166.160000 7.556693
166.180000 7.730964
166.200000 8.096396
166.220000 8.218674
166.240000 8.429018
166.260000 8.668126
166.280000 8.598963
166.300000 8.743464
166.320000 8.812024
166.340000 8.652904
166.360000 8.621270
166.380000 8.551338
166.400000 8.357825
166.420000 8.199209
166.440000 8.037386
166.460000 7.667361
166.480000 7.373753
166.500000 6.984571
166.520000 6.522376
166.540000 6.185735
166.560000 5.639030
166.580000 5.174552
166.600000 4.863005
166.620000 4.381037
166.640000 3.857633
166.660000 3.466365
166.680000 2.991329
166.700000 2.464578
166.720000 1.930364
166.740000 1.322352
166.760000 0.880630
166.780000 0.376130
166.800000 -0.267870
166.820000 -0.764752
166.840000 -1.256634
166.860000 -1.867419
166.880000 -2.471104
166.900000 -3.085222
166.920000 -3.809392
166.940000 -4.377354
166.960000 -5.003529
166.980000 -5.754193
167.000000 -6.171760
167.020000 -6.721532
167.040000 -7.280630
167.060000 -7.666913
167.080000 -8.193272
167.100000 -8.559992
167.120000 -8.774467
167.140000 -9.173493
167.160000 -9.426506
167.180000 -9.437555
167.200000 -9.469076
167.220000 -9.399438
167.240000 -9.215517
167.260000 -9.090369
167.280000 -8.865223
167.300000 -8.643004
167.320000 -8.540961
167.340000 -8.256035
167.360000 -7.922937
167.380000 -7.629804
167.400000 -7.217223
167.420000 -6.826823
167.440000 -6.418597
167.460000 -5.818385
167.480000 -5.367014
167.500000 -4.873480
167.520000 -4.285394
167.540000 -3.764637
167.560000 -3.169298
167.580000 -2.539721
167.600000 -1.963146
167.620000 -1.297762
167.640000 -0.577373
167.660000 -0.013107
167.680000 0.626567
167.700000 1.258455
167.720000 1.813310
167.740000 2.359217
167.760000 2.955915
167.780000 3.476028
167.800000 4.057699
167.820000 4.643082
167.840000 5.094719
167.860000 5.660217
167.880000 6.079575
167.900000 6.416314
167.920000 6.850573
167.940000 7.091627
167.960000 7.407921
167.980000 7.712788
168.000000 7.908513
168.020000 8.187628
168.040000 8.390593
168.060000 8.494400
168.080000 8.626732
168.100000 8.706355
168.120000 8.678558
168.140000 8.670324
168.160000 8.602758
168.180000 8.502774
168.200000 8.414455
168.220000 8.256259
168.240000 8.043043
168.260000 7.803978
168.280000 7.490303
168.300000 7.021736
168.320000 6.683429
168.340000 6.229033
168.360000 5.684092
168.380000 5.339876
168.400000 4.858706
168.420000 4.415737
168.440000 3.996729
168.460000 3.474235
168.480000 3.037722
168.500000 2.529834
168.520000 1.929160
168.540000 1.387271
168.560000 0.895697
168.580000 0.337103
168.600000 -0.208734
168.620000 -0.737669
168.640000 -1.255108
168.660000 -1.779072
168.680000 -2.426181
168.700000 -3.060772
168.720000 -3.619352
168.740000 -4.286696
168.760000 -4.968156
168.780000 -5.546201
168.800000 -6.095707
168.820000 -6.654778
168.840000 -7.158871
168.860000 -7.622998
168.880000 -8.130018
168.900000 -8.497215
168.920000 -8.856317
168.940000 -9.179389
168.960000 -9.411018
168.980000 -9.578765
169.000000 -9.571063
169.020000 -9.474636
169.040000 -9.413007
169.060000 -9.195408
169.080000 -8.941359
169.100000 -8.856205
169.120000 -8.613765
169.140000 -8.325351
169.160000 -8.087168
169.180000 -7.731735
169.200000 -7.354400
169.220000 -6.911557
169.240000 -6.467987
169.260000 -6.013802
169.280000 -5.435225
169.300000 -4.903671
169.320000 -4.404647
169.340000 -3.849721
169.360000 -3.244832
169.380000 -2.637296
169.400000 -2.005982
169.420000 -1.349336
169.440000 -0.684835
169.460000 0.002325
169.480000 0.624816
169.500000 1.224748
169.520000 1.839902
169.540000 2.426937
169.560000 2.982367
169.580000 3.553900
169.600000 4.130783
169.620000 4.688691
169.640000 5.223998
169.660000 5.737823
169.680000 6.187877
169.700000 6.632750
169.720000 6.974195
169.740000 7.247232
169.760000 7.596532
169.780000 7.828652
169.800000 8.022963
169.820000 8.317061
169.840000 8.503712
169.860000 8.583741
169.880000 8.717866
169.900000 8.758840
169.920000 8.773795
169.940000 8.718328
169.960000 8.575970
169.980000 8.561532
170.000000 8.400465
170.020000 8.156723
170.040000 8.002518
170.060000 7.724033
170.080000 7.339220
170.100000 6.926653
170.120000 6.517363
170.140000 6.117917
170.160000 5.627421
170.180000 5.132948
170.200000 4.783228
170.220000 4.350342
170.240000 3.856079
170.260000 3.391349
170.280000 2.970296
170.300000 2.471622
170.320000 1.852071
170.340000 1.343511
170.360000 0.858630
170.380000 0.317190
170.400000 -0.252705
170.420000 -0.801553
170.440000 -1.278451
170.460000 -1.843431
170.480000 -2.513758
170.500000 -3.119726
170.520000 -3.722193
170.540000 -4.405305
170.560000 -5.081962
170.580000 -5.668619
170.600000 -6.187485
170.620000 -6.742243
170.640000 -7.261502
170.660000 -7.712914
170.680000 -8.152662
170.700000 -8.541031
170.720000 -8.886788
170.740000 -9.165707
170.760000 -9.367286
170.780000 -9.522373
170.800000 -9.485068
170.820000 -9.364457
170.840000 -9.255105
170.860000 -9.053274
170.880000 -8.879969
170.900000 -8.696497
170.920000 -8.484079
170.940000 -8.278048
170.960000 -7.943956
170.980000 -7.605242
171.000000 -7.276149
171.020000 -6.829540
171.040000 -6.370215
171.060000 -5.853085
171.080000 -5.349230
171.100000 -4.832114
171.120000 -4.279863
171.140000 -3.735692
171.160000 -3.177980
171.180000 -2.570066
171.200000 -1.950305
171.220000 -1.292273
171.240000 -0.668339
171.260000 0.006231
171.280000 0.631832
171.300000 1.210759
171.320000 1.796758
171.340000 2.356542
171.360000 2.918680
171.380000 3.499427
171.400000 4.037941
171.420000 4.599644
171.440000 5.128663
171.460000 5.668087
171.480000 6.091842
171.500000 6.498948
171.520000 6.842143
171.540000 7.142557
171.560000 7.458445
171.580000 7.731833
171.600000 7.921788
171.620000 8.247016
171.640000 8.411906
171.660000 8.583349
171.680000 8.681191
171.700000 8.706243
171.720000 8.741195
171.740000 8.724531
171.760000 8.601736
171.780000 8.536326
171.800000 8.404190
171.820000 8.286156
171.840000 8.084703
171.860000 7.736566
171.880000 7.478694
171.900000 7.071616
171.920000 6.656626
171.940000 6.167139
171.960000 5.725794
171.980000 5.329135
172.000000 4.840978
172.020000 4.389439
172.040000 3.959354
172.060000 3.522295
172.080000 3.029292
172.100000 2.450631
172.120000 1.934677
172.140000 1.430920
172.160000 0.835007
172.180000 0.289520
172.200000 -0.192560
172.220000 -0.743369
172.240000 -1.245515
172.260000 -1.851203
172.280000 -2.389660
172.300000 -2.976514
172.320000 -3.691861
172.340000 -4.277048
172.360000 -4.923626
172.380000 -5.562473
172.400000 -6.116978
172.420000 -6.656192
172.440000 -7.119830
172.460000 -7.667893
172.480000 -8.139961
172.500000 -8.491613
172.520000 -8.873499
172.540000 -9.204567
172.560000 -9.443450
172.580000 -9.541418
172.600000 -9.595079
172.620000 -9.548307
172.640000 -9.357161
172.660000 -9.165763
172.680000 -9.056103
172.700000 -8.848307
172.720000 -8.610950
172.740000 -8.378998
172.760000 -8.108551
172.780000 -7.815321
172.800000 -7.316773
172.820000 -6.932058
172.840000 -6.541042
172.860000 -5.948224
172.880000 -5.438333
172.900000 -4.909202
172.920000 -4.410514
172.940000 -3.852158
172.960000 -3.208577
172.980000 -2.628642
173.000000 -2.005870
173.020000 -1.358733
173.040000 -0.605954
173.060000 0.007898
173.080000 0.622856
173.100000 1.260765
173.120000 1.838012
173.140000 2.527454
173.160000 2.910082
173.180000 3.539743
173.200000 4.265943
173.220000 4.594378
173.240000 5.355867
173.260000 5.656730
173.280000 6.173188
173.300000 6.841863
173.320000 6.767379
173.340000 7.232137
173.360000 7.788420
173.380000 7.677640
173.400000 8.057383
173.420000 8.417788
173.440000 8.274225
173.460000 8.827694
173.480000 8.680225
173.500000 8.514383
173.520000 9.091826
173.540000 8.555721
173.560000 8.565523
173.580000 8.681499
173.600000 8.256595
173.620000 8.319498
173.640000 7.976107
173.660000 7.719426
173.680000 7.360841
173.700000 6.957082
173.720000 6.608931
173.740000 6.020537
173.760000 5.700378
173.780000 5.186063
173.800000 4.728671
173.820000 4.487925
173.840000 3.796411
173.860000 3.385188
173.880000 3.163542
173.900000 2.281050
173.920000 1.943989
173.940000 1.482648
173.960000 0.611471
173.980000 0.518755
174.000000 -0.308494
174.020000 -0.948980
174.040000 -1.027273
174.060000 -2.030516
174.080000 -2.523015
174.100000 -3.005066
174.120000 -3.907737
174.140000 -4.382171
174.160000 -5.101804
174.180000 -5.779651
174.200000 -6.174588
174.220000 -6.740940
174.240000 -7.367871
174.260000 -7.735712
174.280000 -8.063936
174.300000 -8.639615
174.320000 -8.938013
174.340000 -9.089417
174.360000 -9.418818
174.380000 -9.467214
174.400000 -9.456417
174.420000 -9.391414
174.440000 -9.109778
174.460000 -9.094934
174.480000 -8.946205
174.500000 -8.531089
174.520000 -8.541129
174.540000 -8.323545
174.560000 -7.847402
174.580000 -7.670414
174.600000 -7.230022
174.620000 -6.809515
174.640000 -6.408402
174.660000 -5.795363
174.680000 -5.373400
174.700000 -4.880649
174.720000 -4.259712
174.740000 -3.735300
174.760000 -3.241051
174.780000 -2.557827
174.800000 -1.860179
174.820000 -1.389288
174.840000 -0.623584
174.860000 0.104773
174.880000 0.577807
174.900000 1.255920
174.920000 1.825703
174.940000 2.338996
174.960000 2.985322
174.980000 3.453622
175.000000 4.030659
175.020000 4.741428
175.040000 5.127585
175.060000 5.613880
175.080000 6.177543
175.100000 6.542219
175.120000 6.798382
175.140000 7.157162
175.160000 7.467085
175.180000 7.728752
175.200000 8.034277
175.220000 8.094842
175.240000 8.436958
175.260000 8.662594
175.280000 8.538819
175.300000 8.694620
175.320000 8.758363
175.340000 8.615165
175.360000 8.629434
175.380000 8.492608
175.400000 8.286940
175.420000 8.357881
175.440000 8.008175
175.460000 7.644536
175.480000 7.518099
175.500000 6.968831
175.520000 6.574300
175.540000 6.159367
175.560000 5.651282
175.580000 5.222527
175.600000 4.835530
175.620000 4.377172
175.640000 3.882349
175.660000 3.521735
175.680000 2.953954
175.700000 2.435199
175.720000 1.955850
175.740000 1.306878
175.760000 0.811985
175.780000 0.383832
175.800000 -0.270335
175.820000 -0.770941
175.840000 -1.208561
175.860000 -1.876199
175.880000 -2.369440
175.900000 -3.019686
175.920000 -3.719294
175.940000 -4.179725
175.960000 -4.963353
175.980000 -5.560457
176.000000 -6.001493
176.020000 -6.622192
176.040000 -7.126313
176.060000 -7.591001
176.080000 -8.068936
176.100000 -8.459756
176.120000 -8.817458
176.140000 -9.177246
176.160000 -9.369652
176.180000 -9.474720
176.200000 -9.549400
176.220000 -9.448561
176.240000 -9.320403
176.260000 -9.198769
176.280000 -8.987823
176.300000 -8.777800
176.320000 -8.662636
176.340000 -8.407243
176.360000 -8.038142
176.380000 -7.771476
176.400000 -7.357103
176.420000 -6.928095
176.440000 -6.477005
176.460000 -5.929767
176.480000 -5.487779
176.500000 -4.972287
176.520000 -4.342990
176.540000 -3.847775
176.560000 -3.310116
176.580000 -2.592597
176.600000 -2.015799
176.620000 -1.366350
176.640000 -0.643427
176.660000 -0.064878
176.680000 0.630922
176.700000 1.236931
176.720000 1.772910
176.740000 2.424585
176.760000 2.963532
176.780000 3.517324
176.800000 4.137533
176.820000 4.688117
176.840000 5.193863
176.860000 5.728539
176.880000 6.166970
176.900000 6.585335
176.920000 6.939662
176.940000 7.220542
176.960000 7.530338
176.980000 7.824661
177.000000 8.059287
177.020000 8.222175
177.040000 8.472653
177.060000 8.611888
177.080000 8.688809
177.100000 8.753210
177.120000 8.703498
177.140000 8.728396
177.160000 8.702966
177.180000 8.472205
177.200000 8.404680
177.220000 8.274757
177.240000 7.999787
177.260000 7.735193
177.280000 7.346152
177.300000 6.945025
177.320000 6.581652
177.340000 6.100805
177.360000 5.624032
177.380000 5.217206
177.400000 4.784404
177.420000 4.357469
177.440000 3.927174
177.460000 3.436636
177.480000 2.960690
177.500000 2.494602
177.520000 1.928824
177.540000 1.364124
177.560000 0.865366
177.580000 0.345603
177.600000 -0.207824
177.620000 -0.711623
177.640000 -1.317437
177.660000 -1.826725
177.680000 -2.425145
177.700000 -3.140983
177.720000 -3.748169
177.740000 -4.424055
177.760000 -5.072145
177.780000 -5.660497
177.800000 -6.261101
177.820000 -6.749595
177.840000 -7.232389
177.860000 -7.742965
177.880000 -8.190345
177.900000 -8.548985
177.920000 -8.873863
177.940000 -9.172989
177.960000 -9.401622
177.980000 -9.491986
178.000000 -9.440901
178.020000 -9.348549
178.040000 -9.252178
178.060000 -9.093324
178.080000 -8.863333
178.100000 -8.697883
178.120000 -8.568352
178.140000 -8.302596
178.160000 -7.967999
178.180000 -7.617201
178.200000 -7.273825
178.220000 -6.884713
178.240000 -6.349504
178.260000 -5.836827
178.280000 -5.375836
178.300000 -4.861563
178.320000 -4.308710
178.340000 -3.724335
178.360000 -3.157563
178.380000 -2.584671
178.400000 -1.963902
178.420000 -1.240796
178.440000 -0.613894
178.460000 -0.028707
178.480000 0.638904
178.500000 1.213434
178.520000 1.841121
178.540000 2.353966
178.560000 2.865271
178.580000 3.550161
178.600000 4.082345
178.620000 4.603817
178.640000 5.163041
178.660000 5.647067
178.680000 6.113996
178.700000 6.498458
178.720000 6.793355
178.740000 7.134687
178.760000 7.453726
178.780000 7.698547
178.800000 7.984551
178.820000 8.173359
178.840000 8.409147
178.860000 8.587732
178.880000 8.658925
178.900000 8.680561
178.920000 8.702532
178.940000 8.727654
178.960000 8.621691
178.980000 8.498125
179.000000 8.418502
179.020000 8.315059
179.040000 8.092265
179.060000 7.738022
179.080000 7.452564
179.100000 7.096570
179.120000 6.660071
179.140000 6.126753
179.160000 5.733804
179.180000 5.343250
179.200000 4.831217
179.220000 4.383824
179.240000 3.957169
179.260000 3.491137
179.280000 3.014421
179.300000 2.426405
179.320000 1.894417
179.340000 1.415838
179.360000 0.810627
179.380000 0.295485
179.400000 -0.183276
179.420000 -0.793333
179.440000 -1.273928
179.460000 -1.839272
179.480000 -2.475893
179.500000 -3.091635
179.520000 -3.744808
179.540000 -4.342304
179.560000 -5.000854
179.580000 -5.659292
179.600000 -6.144509
179.620000 -6.639402
179.640000 -7.186766
179.660000 -7.760091
179.680000 -8.130144
179.700000 -8.470972
179.720000 -8.903620
179.740000 -9.213809
179.760000 -9.397309
179.780000 -9.490319
179.800000 -9.510148
179.820000 -9.481693
179.840000 -9.321789
179.860000 -9.075876
179.880000 -8.987052
179.900000 -8.786608
179.920000 -8.553914
179.940000 -8.330168
179.960000 -7.986652
179.980000 -7.672920