% Original filename: Decay Test 0Deg0006.mat
0 Deg Decay Run 1 2018-04-12
Time(s) Response(deg) LoadCell(N)
0.000000 -12.712524 -1.952953
0.020000 -12.712727 -1.956678
0.040000 -12.712964 -1.948220
0.060000 -12.713230 -1.951175
0.080000 -12.713523 -1.959507
0.100000 -12.713839 -1.956818
0.120000 -12.714174 -1.948514
0.140000 -12.714525 -1.942801
0.160000 -12.714890 -1.952729
0.180000 -12.715263 -1.949285
0.200000 -12.715643 -1.954130
0.220000 -12.716025 -1.952673
0.240000 -12.716406 -1.945742
0.260000 -12.716783 -1.944635
0.280000 -12.717153 -1.948962
0.300000 -12.717512 -1.944425
0.320000 -12.717856 -1.941681
0.340000 -12.718183 -1.948682
0.360000 -12.718489 -1.949649
0.380000 -12.718770 -1.947982
0.400000 -12.719023 -1.947982
0.420000 -12.719053 -1.956650
0.440000 -12.720427 -1.958289
0.460000 -12.722566 -1.949369
0.480000 -12.721045 -1.947394
0.500000 -12.720601 -1.955600
0.520000 -12.720555 -1.942717
0.540000 -12.718537 -1.943655
0.560000 -12.718660 -1.951077
0.580000 -12.718081 -1.955026
0.600000 -12.716008 -1.954242
0.620000 -12.716114 -1.955054
0.640000 -12.715870 -1.953962
0.660000 -12.715288 -1.940925
0.680000 -12.713459 -1.944355
0.700000 -12.713273 -1.958723
0.720000 -12.712444 -1.951987
0.740000 -12.711963 -1.954998
0.760000 -12.713540 -1.949985
0.780000 -12.712537 -1.950391
0.800000 -12.712499 -1.956286
0.820000 -12.711525 -1.947506
0.840000 -12.710978 -1.954046
0.860000 -12.711511 -1.957000
0.880000 -12.713916 -1.951791
0.900000 -12.715562 -1.958121
0.920000 -12.715273 -1.952183
0.940000 -12.716256 -1.956664
0.960000 -12.717196 -1.958121
0.980000 -12.716001 -1.952015
1.000000 -12.716804 -1.953864
1.020000 -12.715654 -1.952869
1.040000 -12.717837 -1.950209
1.060000 -12.716962 -1.952659
1.080000 -12.716761 -1.949425
1.100000 -12.717207 -1.945434
1.120000 -12.719720 -1.949747
1.140000 -12.722519 -1.950965
1.160000 -12.729345 -1.954760
1.180000 -12.735882 -1.955054
1.200000 -12.739089 -1.954984
1.220000 -12.742379 -1.951693
1.240000 -12.749026 -1.953444
1.260000 -12.748426 -1.961832
1.280000 -12.744733 -1.946960
1.300000 -12.743223 -1.952351
1.320000 -12.739205 -1.953640
1.340000 -12.731947 -1.960739
1.360000 -12.729427 -1.959283
1.380000 -12.720848 -1.966341
1.400000 -12.710110 -1.955894
1.420000 -12.698073 -1.958863
1.440000 -12.680331 -1.951077
1.460000 -12.659186 -1.953738
1.480000 -12.635060 -1.950125
1.500000 -12.606030 -1.948808
1.520000 -12.568971 -1.951343
1.540000 -12.529709 -1.952533
1.560000 -12.489652 -1.949229
1.580000 -12.442845 -1.952309
1.600000 -12.394064 -1.955194
1.620000 -12.338878 -1.953738
1.640000 -12.274759 -1.947100
1.660000 -12.207254 -1.949747
1.680000 -12.135269 -1.946498
1.700000 -12.058224 -1.948444
1.720000 -11.975438 -1.953892
1.740000 -11.887747 -1.950433
1.760000 -11.794882 -1.946806
1.780000 -11.698940 -1.947226
1.800000 -11.598335 -1.943641
1.820000 -11.491842 -1.956944
1.840000 -11.382093 -1.951581
1.860000 -11.267749 -1.944677
1.880000 -11.151267 -1.951525
1.900000 -11.036482 -1.950545
1.920000 -10.920669 -1.951497
1.940000 -10.804474 -1.955544
1.960000 -10.686474 -1.949495
1.980000 -10.563067 -1.952533
2.000000 -10.433669 -1.952939
2.020000 -10.301852 -1.953626
2.040000 -10.166678 -1.958219
2.060000 -10.024609 -1.952407
2.080000 -9.885495 -1.949551
2.100000 -9.748445 -1.949467
2.120000 -9.606671 -1.946974
2.140000 -9.464283 -1.955488
2.160000 -9.323582 -1.948836
2.180000 -9.172472 -1.954522
2.200000 -9.022195 -1.954956
2.220000 -8.869339 -1.956174
2.240000 -8.715183 -1.955614
2.260000 -8.552929 -1.956930
2.280000 -8.390201 -1.962868
2.300000 -8.223237 -1.958513
2.320000 -8.056342 -1.956538
2.340000 -7.890656 -1.957561
2.360000 -7.720105 -1.957280
2.380000 -7.546939 -1.961271
2.400000 -7.366070 -1.960473
2.420000 -7.180044 -1.956020
2.440000 -6.992893 -1.958317
2.460000 -6.806112 -1.954900
2.480000 -6.617287 -1.956090
2.500000 -6.422585 -1.955936
2.520000 -6.225613 -1.958261
2.540000 -6.025830 -1.961047
2.560000 -5.823806 -1.954690
2.580000 -5.616242 -1.959115
2.600000 -5.407069 -1.948962
2.620000 -5.196596 -1.944860
2.640000 -4.983250 -1.953290
2.660000 -4.768151 -1.948108
2.680000 -4.554790 -1.941639
2.700000 -4.339734 -1.950797
2.720000 -4.127567 -1.951651
2.740000 -3.908437 -1.949761
2.760000 -3.684852 -1.947772
2.780000 -3.461206 -1.952015
2.800000 -3.230507 -1.956048
2.820000 -3.005318 -1.953107
2.840000 -2.780389 -1.947058
2.860000 -2.555317 -1.948304
2.880000 -2.333767 -1.951203
2.900000 -2.112661 -1.956790
2.920000 -1.885702 -1.956342
2.940000 -1.666684 -1.952799
2.960000 -1.445911 -1.949103
2.980000 -1.221335 -1.951861
3.000000 -0.998972 -1.952925
3.020000 -0.778652 -1.953135
3.040000 -0.558105 -1.953402
3.060000 -0.331653 -1.949467
3.080000 -0.114664 -1.950195
3.100000 0.101969 -1.948178
3.120000 0.319574 -1.951217
3.140000 0.534538 -1.951245
3.160000 0.751731 -1.951511
3.180000 0.967405 -1.940897
3.200000 1.186657 -1.944986
3.220000 1.398481 -1.942661
3.240000 1.607534 -1.947324
3.260000 1.818434 -1.952911
3.280000 2.025717 -1.944817
3.300000 2.233465 -1.948444
3.320000 2.437251 -1.950489
3.340000 2.642781 -1.952575
3.360000 2.847843 -1.947618
3.380000 3.050174 -1.956062
3.400000 3.247826 -1.950293
3.420000 3.448678 -1.953009
3.440000 3.645750 -1.947982
3.460000 3.838530 -1.952281
3.480000 4.027451 -1.948136
3.500000 4.214854 -1.956370
3.520000 4.396275 -1.953738
3.540000 4.582163 -1.953121
3.560000 4.760983 -1.952603
3.580000 4.933576 -1.957000
3.600000 5.109508 -1.953850
3.620000 5.282794 -1.957827
3.640000 5.448240 -1.945560
3.660000 5.609807 -1.954886
3.680000 5.765933 -1.946176
3.700000 5.921515 -1.950615
3.720000 6.073172 -1.951791
3.740000 6.220968 -1.956132
3.760000 6.367767 -1.944215
3.780000 6.512904 -1.947380
3.800000 6.652562 -1.940743
3.820000 6.786518 -1.944257
3.840000 6.921522 -1.950195
3.860000 7.051132 -1.947982
3.880000 7.171248 -1.950251
3.900000 7.297455 -1.944874
3.920000 7.418782 -1.945070
3.940000 7.529528 -1.944902
3.960000 7.641177 -1.946918
3.980000 7.749979 -1.947422
4.000000 7.859526 -1.953248
4.020000 7.962001 -1.944159
4.040000 8.059579 -1.948934
4.060000 8.151645 -1.953780
4.080000 8.239291 -1.940855
4.100000 8.322867 -1.946274
4.120000 8.404141 -1.942577
4.140000 8.485192 -1.951161
4.160000 8.560277 -1.943081
4.180000 8.629875 -1.944663
4.200000 8.690112 -1.948724
4.220000 8.746451 -1.947828
4.240000 8.796032 -1.954396
4.260000 8.846028 -1.958149
4.280000 8.892215 -1.949257
4.300000 8.927742 -1.947814
4.320000 8.966387 -1.956454
4.340000 9.003603 -1.948556
4.360000 9.033472 -1.956356
4.380000 9.060136 -1.943641
4.400000 9.086502 -1.947156
4.420000 9.102776 -1.950503
4.440000 9.108234 -1.951469
4.460000 9.120585 -1.947996
4.480000 9.123687 -1.946260
4.500000 9.124814 -1.942003
4.520000 9.119271 -1.955474
4.540000 9.113668 -1.953318
4.560000 9.099241 -1.956874
4.580000 9.082711 -1.955012
4.600000 9.064394 -1.943599
4.620000 9.044571 -1.943921
4.640000 9.013671 -1.952127
4.660000 8.980798 -1.947688
4.680000 8.948552 -1.948472
4.700000 8.913449 -1.952141
4.720000 8.870245 -1.956076
4.740000 8.821918 -1.950601
4.760000 8.777351 -1.947814
4.780000 8.731789 -1.950755
4.800000 8.681829 -1.954312
4.820000 8.620483 -1.953360
4.840000 8.553765 -1.947366
4.860000 8.486822 -1.949523
4.880000 8.418346 -1.952925
4.900000 8.350172 -1.947562
4.920000 8.278546 -1.956650
4.940000 8.202479 -1.958891
4.960000 8.119456 -1.954830
4.980000 8.035692 -1.947310
5.000000 7.947118 -1.948850
5.020000 7.861376 -1.952211
5.040000 7.769615 -1.951973
5.060000 7.678035 -1.949831
5.080000 7.581646 -1.943459
5.100000 7.483305 -1.950951
5.120000 7.389837 -1.945924
5.140000 7.290207 -1.943571
5.160000 7.186851 -1.955880
5.180000 7.082184 -1.950615
5.200000 6.973292 -1.961930
5.220000 6.862402 -1.949971
5.240000 6.751715 -1.949943
5.260000 6.636966 -1.948304
5.280000 6.516917 -1.939748
5.300000 6.398137 -1.951735
5.320000 6.276733 -1.954186
5.340000 6.154942 -1.946918
5.360000 6.031633 -1.951553
5.380000 5.907039 -1.946190
5.400000 5.778402 -1.949789
5.420000 5.645704 -1.944187
5.440000 5.508096 -1.936962
5.460000 5.375369 -1.942549
5.480000 5.240207 -1.949145
5.500000 5.100840 -1.946708
5.520000 4.959097 -1.945980
5.540000 4.814504 -1.942451
5.560000 4.669584 -1.946302
5.580000 4.523272 -1.948934
5.600000 4.373882 -1.945980
5.620000 4.222426 -1.944019
5.640000 4.073131 -1.951903
5.660000 3.925452 -1.949831
5.680000 3.774365 -1.952533
5.700000 3.623877 -1.949985
5.720000 3.462762 -1.938488
5.740000 3.306970 -1.950783
5.760000 3.151476 -1.946792
5.780000 2.995939 -1.953948
5.800000 2.838885 -1.943543
5.820000 2.677136 -1.943879
5.840000 2.517062 -1.946218
5.860000 2.361476 -1.942549
5.880000 2.206318 -1.952547
5.900000 2.054868 -1.945700
5.920000 1.899738 -1.947800
5.940000 1.746425 -1.946722
5.960000 1.591427 -1.951525
5.980000 1.433806 -1.943333
6.000000 1.275605 -1.946806
6.020000 1.117426 -1.948794
6.040000 0.957283 -1.939608
6.060000 0.795609 -1.945028
6.080000 0.637674 -1.942213
6.100000 0.481776 -1.948066
6.120000 0.327243 -1.946652
6.140000 0.170027 -1.946918
6.160000 0.014968 -1.947044
6.180000 -0.144804 -1.951287
6.200000 -0.302942 -1.947576
6.220000 -0.457679 -1.952505
6.240000 -0.609766 -1.948598
6.260000 -0.761774 -1.952113
6.280000 -0.913945 -1.949887
6.300000 -1.068508 -1.946120
6.320000 -1.220224 -1.951945
6.340000 -1.368422 -1.944593
6.360000 -1.516064 -1.942549
6.380000 -1.658888 -1.944663
6.400000 -1.800469 -1.945812
6.420000 -1.942620 -1.945574
6.440000 -2.084975 -1.947338
6.460000 -2.224600 -1.945966
6.480000 -2.365013 -1.948906
6.500000 -2.502910 -1.944944
6.520000 -2.640595 -1.943403
6.540000 -2.775571 -1.948150
6.560000 -2.904775 -1.941695
6.580000 -3.034915 -1.957771
6.600000 -3.157896 -1.949607
6.620000 -3.287269 -1.941065
6.640000 -3.405582 -1.944397
6.660000 -3.522764 -1.947086
6.680000 -3.642482 -1.938054
6.700000 -3.753922 -1.934665
6.720000 -3.872150 -1.941205
6.740000 -3.988083 -1.951259
6.760000 -4.099787 -1.945924
6.780000 -4.213369 -1.945280
6.800000 -4.322019 -1.947422
6.820000 -4.428596 -1.944551
6.840000 -4.535511 -1.951399
6.860000 -4.638185 -1.942479
6.880000 -4.732856 -1.944733
6.900000 -4.824656 -1.946806
6.920000 -4.915186 -1.949341
6.940000 -5.004685 -1.951595
6.960000 -5.088862 -1.941541
6.980000 -5.170740 -1.940869
7.000000 -5.246236 -1.945602
7.020000 -5.319786 -1.946428
7.040000 -5.389253 -1.942493
7.060000 -5.460807 -1.946078
7.080000 -5.528916 -1.952281
7.100000 -5.592086 -1.949761
7.120000 -5.653285 -1.958835
7.140000 -5.711205 -1.946946
7.160000 -5.767243 -1.949719
7.180000 -5.818368 -1.958723
7.200000 -5.865854 -1.951931
7.220000 -5.910391 -1.949705
7.240000 -5.950887 -1.941065
7.260000 -5.984964 -1.938390
7.280000 -6.020563 -1.946106
7.300000 -6.052024 -1.948290
7.320000 -6.082335 -1.958681
7.340000 -6.111076 -1.955362
7.360000 -6.132042 -1.949901
7.380000 -6.154974 -1.950419
7.400000 -6.173074 -1.953107
7.420000 -6.196190 -1.952939
7.440000 -6.207863 -1.956006
7.460000 -6.223439 -1.951063
7.480000 -6.235163 -1.946792
7.500000 -6.240056 -1.955964
7.520000 -6.250966 -1.942871
7.540000 -6.254750 -1.939706
7.560000 -6.251248 -1.942297
7.580000 -6.252110 -1.951679
7.600000 -6.248108 -1.947464
7.620000 -6.240564 -1.951007
7.640000 -6.235959 -1.949355
7.660000 -6.221726 -1.947660
7.680000 -6.202255 -1.942997
7.700000 -6.188152 -1.951287
7.720000 -6.165224 -1.949285
7.740000 -6.143534 -1.949635
7.760000 -6.117366 -1.951609
7.780000 -6.091073 -1.947884
7.800000 -6.065597 -1.942451
7.820000 -6.035502 -1.947366
7.840000 -6.005251 -1.941639
7.860000 -5.971499 -1.944537
7.880000 -5.935186 -1.941905
7.900000 -5.896473 -1.941891
7.920000 -5.854736 -1.947002
7.940000 -5.808444 -1.945126
7.960000 -5.757675 -1.946274
7.980000 -5.704374 -1.942003
8.000000 -5.647141 -1.949621
8.020000 -5.591331 -1.958667
8.040000 -5.532179 -1.946456
8.060000 -5.471476 -1.952855
8.080000 -5.410029 -1.946638
8.100000 -5.342186 -1.944145
8.120000 -5.279120 -1.946806
8.140000 -5.211824 -1.955376
8.160000 -5.140272 -1.950797
8.180000 -5.067982 -1.955796
8.200000 -4.994145 -1.947212
8.220000 -4.922173 -1.946554
8.240000 -4.843398 -1.947716
8.260000 -4.764183 -1.945560
8.280000 -4.683237 -1.952183
8.300000 -4.602487 -1.949943
8.320000 -4.519781 -1.947898
8.340000 -4.433297 -1.946498
8.360000 -4.345177 -1.946400
8.380000 -4.258929 -1.942605
8.400000 -4.170572 -1.954578
8.420000 -4.080766 -1.956790
8.440000 -3.987660 -1.948962
8.460000 -3.891346 -1.951833
8.480000 -3.799875 -1.946750
8.500000 -3.702845 -1.948136
8.520000 -3.598795 -1.950433
8.540000 -3.507840 -1.953626
8.560000 -3.409332 -1.951931
8.580000 -3.310510 -1.947156
8.600000 -3.212890 -1.960109
8.620000 -3.109796 -1.952043
8.640000 -3.008150 -1.953178
8.660000 -2.906073 -1.952841
8.680000 -2.803060 -1.944061
8.700000 -2.701147 -1.954830
8.720000 -2.601367 -1.952519
8.740000 -2.495361 -1.952057
8.760000 -2.387411 -1.953920
8.780000 -2.286489 -1.949719
8.800000 -2.177729 -1.947968
8.820000 -2.070977 -1.952113
8.840000 -1.966637 -1.956608
8.860000 -1.859914 -1.954158
8.880000 -1.749455 -1.949579
8.900000 -1.641247 -1.952113
8.920000 -1.537174 -1.958247
8.940000 -1.427084 -1.958401
8.960000 -1.319288 -1.950181
8.980000 -1.212252 -1.948038
9.000000 -1.106537 -1.945028
9.020000 -1.002631 -1.948710
9.040000 -0.891290 -1.948206
9.060000 -0.788676 -1.955390
9.080000 -0.682532 -1.952323
9.100000 -0.575381 -1.949145
9.120000 -0.472719 -1.948990
9.140000 -0.362417 -1.956804
9.160000 -0.256542 -1.947674
9.180000 -0.152069 -1.947310
9.200000 -0.049632 -1.945476
9.220000 0.060059 -1.953416
9.240000 0.165248 -1.951427
9.260000 0.265904 -1.943977
9.280000 0.368083 -1.949004
9.300000 0.473662 -1.952239
9.320000 0.576832 -1.956524
9.340000 0.671219 -1.951707
9.360000 0.774923 -1.952813
9.380000 0.871713 -1.953416
9.400000 0.969612 -1.948598
9.420000 1.066929 -1.946778
9.440000 1.161655 -1.951609
9.460000 1.256598 -1.955054
9.480000 1.350682 -1.953458
9.500000 1.443022 -1.952771
9.520000 1.538893 -1.959689
9.540000 1.632756 -1.948080
9.560000 1.723377 -1.952841
9.580000 1.811573 -1.952519
9.600000 1.900269 -1.952183
9.620000 1.988747 -1.956916
9.640000 2.072645 -1.944313
9.660000 2.159308 -1.944145
9.680000 2.244088 -1.943375
9.700000 2.323003 -1.950559
9.720000 2.401210 -1.947954
9.740000 2.477262 -1.947002
9.760000 2.557208 -1.952029
9.780000 2.633538 -1.948024
9.800000 2.704090 -1.947268
9.820000 2.777159 -1.944159
9.840000 2.850908 -1.948738
9.860000 2.916264 -1.952365
9.880000 2.983569 -1.956146
9.900000 3.044732 -1.952477
9.920000 3.104021 -1.953906
9.940000 3.165717 -1.951133
9.960000 3.220500 -1.957210
9.980000 3.276592 -1.954060
10.000000 3.331373 -1.948192
10.020000 3.384047 -1.950377
10.040000 3.429161 -1.945070
10.060000 3.477976 -1.948444
10.080000 3.523212 -1.944439
10.100000 3.565737 -1.946428
10.120000 3.607922 -1.948500
10.140000 3.642971 -1.943641
10.160000 3.682193 -1.940014
10.180000 3.713687 -1.943655
10.200000 3.749439 -1.948374
10.220000 3.780860 -1.945700
10.240000 3.811749 -1.953374
10.260000 3.844184 -1.944117
10.280000 3.872360 -1.941415
10.300000 3.901459 -1.952253
10.320000 3.926508 -1.952827
10.340000 3.948388 -1.947380
10.360000 3.974033 -1.947254
10.380000 3.995438 -1.949257
10.400000 4.012215 -1.948360
10.420000 4.030413 -1.942717
10.440000 4.041759 -1.942927
10.460000 4.052411 -1.943053
10.480000 4.064796 -1.951679
10.500000 4.076346 -1.953304
10.520000 4.083188 -1.942395
10.540000 4.089518 -1.951483
10.560000 4.096380 -1.950377
10.580000 4.098807 -1.941331
10.600000 4.094081 -1.943557
10.620000 4.090202 -1.954956
10.640000 4.085600 -1.952995
10.660000 4.077347 -1.952435
10.680000 4.062540 -1.951889
10.700000 4.049445 -1.953892
10.720000 4.040455 -1.954424
10.740000 4.025624 -1.945448
10.760000 4.007970 -1.947366
10.780000 3.989607 -1.953009
10.800000 3.965186 -1.950013
10.820000 3.937545 -1.962994
10.840000 3.914181 -1.950391
10.860000 3.884280 -1.952295
10.880000 3.851062 -1.950825
10.900000 3.818479 -1.956174
10.920000 3.786088 -1.950279
10.940000 3.751996 -1.953934
10.960000 3.713711 -1.945910
10.980000 3.675386 -1.951595
11.000000 3.640970 -1.938166
11.020000 3.601057 -1.949355
11.040000 3.561274 -1.948780
11.060000 3.517669 -1.951315
11.080000 3.477334 -1.947506
11.100000 3.437060 -1.949117
11.120000 3.391073 -1.952603
11.140000 3.351268 -1.950797
11.160000 3.303575 -1.951091
11.180000 3.257098 -1.954662
11.200000 3.207166 -1.955600
11.220000 3.160114 -1.956034
11.240000 3.112529 -1.950167
11.260000 3.063426 -1.948626
11.280000 3.014533 -1.956356
11.300000 2.962821 -1.953640
11.320000 2.908358 -1.947562
11.340000 2.857942 -1.950489
11.360000 2.803335 -1.954984
11.380000 2.751562 -1.957365
11.400000 2.690459 -1.956034
11.420000 2.639274 -1.960375
11.440000 2.580821 -1.946722
11.460000 2.524246 -1.949579
11.480000 2.461081 -1.944958
11.500000 2.404473 -1.957028
11.520000 2.343250 -1.949159
11.540000 2.277055 -1.952099
11.560000 2.212372 -1.957897
11.580000 2.150419 -1.952085
11.600000 2.084346 -1.952911
11.620000 2.017375 -1.954858
11.640000 1.954018 -1.957379
11.660000 1.886788 -1.948318
11.680000 1.821904 -1.951693
11.700000 1.758550 -1.952001
11.720000 1.687506 -1.949635
11.740000 1.619888 -1.949453
11.760000 1.549514 -1.942465
11.780000 1.482383 -1.945854
11.800000 1.414017 -1.951847
11.820000 1.339702 -1.946834
11.840000 1.273686 -1.942157
11.860000 1.200744 -1.939608
11.880000 1.138956 -1.943403
11.900000 1.071661 -1.946918
11.920000 1.002046 -1.956132
11.940000 0.937058 -1.947086
11.960000 0.861784 -1.953668
11.980000 0.798301 -1.952757
12.000000 0.728468 -1.946778
12.020000 0.664324 -1.950601
12.040000 0.597904 -1.946848
12.060000 0.529483 -1.949901
12.080000 0.461990 -1.952505
12.100000 0.395562 -1.948178
12.120000 0.328914 -1.955348
12.140000 0.263116 -1.954620
12.160000 0.195117 -1.948556
12.180000 0.129057 -1.955418
12.200000 0.061851 -1.952729
12.220000 -0.006383 -1.947772
12.240000 -0.077181 -1.944902
12.260000 -0.139233 -1.955432
12.280000 -0.211037 -1.946246
12.300000 -0.276750 -1.946414
12.320000 -0.339227 -1.950251
12.340000 -0.402053 -1.948948
12.360000 -0.466700 -1.955376
12.380000 -0.527516 -1.953192
12.400000 -0.589178 -1.950349
12.420000 -0.656099 -1.949061
12.440000 -0.716536 -1.953710
12.460000 -0.777051 -1.952155
12.480000 -0.841141 -1.950069
12.500000 -0.906479 -1.952295
12.520000 -0.970635 -1.956020
12.540000 -1.026662 -1.945630
12.560000 -1.085674 -1.947254
12.580000 -1.146158 -1.948738
12.600000 -1.206832 -1.953023
12.620000 -1.264381 -1.954074
12.640000 -1.315499 -1.946050
12.660000 -1.369105 -1.948332
12.680000 -1.419897 -1.946680
12.700000 -1.475455 -1.949341
12.720000 -1.526534 -1.948500
12.740000 -1.573649 -1.947310
12.760000 -1.618406 -1.954158
12.780000 -1.659205 -1.950265
12.800000 -1.705428 -1.951693
12.820000 -1.746679 -1.957252
12.840000 -1.791399 -1.948934
12.860000 -1.832979 -1.961047
12.880000 -1.871135 -1.953051
12.900000 -1.906596 -1.956090
12.920000 -1.941133 -1.953192
12.940000 -1.973076 -1.952071
12.960000 -2.007332 -1.954760
12.980000 -2.039253 -1.954620
13.000000 -2.070709 -1.951399
13.020000 -2.104457 -1.952813
13.040000 -2.130875 -1.951371
13.060000 -2.157739 -1.955152
13.080000 -2.186517 -1.966173
13.100000 -2.209527 -1.952939
13.120000 -2.231087 -1.954886
13.140000 -2.258072 -1.957547
13.160000 -2.281645 -1.957028
13.180000 -2.300209 -1.948416
13.200000 -2.322764 -1.952239
13.220000 -2.343914 -1.953682
13.240000 -2.360368 -1.948766
13.260000 -2.377983 -1.944930
13.280000 -2.397321 -1.942227
13.300000 -2.413161 -1.953416
13.320000 -2.426612 -1.955894
13.340000 -2.441171 -1.945000
13.360000 -2.455459 -1.950643
13.380000 -2.468617 -1.945336
13.400000 -2.477472 -1.952729
13.420000 -2.483064 -1.953976
13.440000 -2.490120 -1.950181
13.460000 -2.495460 -1.952155
13.480000 -2.500702 -1.946120
13.500000 -2.500354 -1.938222
13.520000 -2.496125 -1.942283
13.540000 -2.493238 -1.948220
13.560000 -2.493801 -1.959479
13.580000 -2.493120 -1.951945
13.600000 -2.489014 -1.948276
13.620000 -2.481602 -1.954256
13.640000 -2.470178 -1.960207
13.660000 -2.458032 -1.952995
13.680000 -2.446338 -1.959143
13.700000 -2.434814 -1.952757
13.720000 -2.422869 -1.954340
13.740000 -2.413818 -1.952939
13.760000 -2.399004 -1.954032
13.780000 -2.383121 -1.939846
13.800000 -2.369776 -1.953178
13.820000 -2.354621 -1.947562
13.840000 -2.340176 -1.948108
13.860000 -2.326013 -1.959157
13.880000 -2.306220 -1.952393
13.900000 -2.288334 -1.956384
13.920000 -2.269305 -1.953836
13.940000 -2.252862 -1.946484
13.960000 -2.233858 -1.950755
13.980000 -2.209055 -1.943683
14.000000 -2.189032 -1.946834
14.020000 -2.167362 -1.953808
14.040000 -2.147552 -1.953234
14.060000 -2.122085 -1.954466
14.080000 -2.099184 -1.950097
14.100000 -2.077486 -1.950881
14.120000 -2.057707 -1.959311
14.140000 -2.035038 -1.947520
14.160000 -2.007704 -1.952127
14.180000 -1.982797 -1.948136
14.200000 -1.957217 -1.947450
14.220000 -1.932866 -1.949999
14.240000 -1.902379 -1.949271
14.260000 -1.871230 -1.950867
14.280000 -1.842380 -1.948766
14.300000 -1.811598 -1.946876
14.320000 -1.777310 -1.955852
14.340000 -1.746884 -1.950377
14.360000 -1.716754 -1.951665
14.380000 -1.683580 -1.953388
14.400000 -1.647097 -1.956104
14.420000 -1.609591 -1.948066
14.440000 -1.572797 -1.958149
14.460000 -1.539180 -1.950881
14.480000 -1.503129 -1.949004
14.500000 -1.465038 -1.957168
14.520000 -1.425373 -1.965304
14.540000 -1.389915 -1.950573
14.560000 -1.352116 -1.950041
14.580000 -1.315868 -1.955852
14.600000 -1.279339 -1.951581
14.620000 -1.241381 -1.955712
14.640000 -1.205582 -1.949971
14.660000 -1.169839 -1.948402
14.680000 -1.127351 -1.955152
14.700000 -1.088211 -1.951021
14.720000 -1.048154 -1.957575
14.740000 -1.010705 -1.953696
14.760000 -0.969871 -1.954984
14.780000 -0.926057 -1.959619
14.800000 -0.887168 -1.951357
14.820000 -0.850988 -1.947324
14.840000 -0.816816 -1.948542
14.860000 -0.777903 -1.948304
14.880000 -0.743018 -1.946470
14.900000 -0.709504 -1.954788
14.920000 -0.675461 -1.962980
14.940000 -0.642180 -1.952589
14.960000 -0.603678 -1.949915
14.980000 -0.568861 -1.957379
15.000000 -0.534784 -1.954326
15.020000 -0.503860 -1.959647
15.040000 -0.465481 -1.954816
15.060000 -0.432326 -1.960347
15.080000 -0.400194 -1.956846
15.100000 -0.369105 -1.956902
15.120000 -0.335798 -1.958121
15.140000 -0.303732 -1.952141
15.160000 -0.268138 -1.954900
15.180000 -0.231582 -1.958765
15.200000 -0.197647 -1.951301
15.220000 -0.164939 -1.947940
15.240000 -0.132075 -1.952869
15.260000 -0.094158 -1.953640
15.280000 -0.057369 -1.950209
15.300000 -0.023125 -1.949775
15.320000 0.006622 -1.959843
15.340000 0.037764 -1.956580
15.360000 0.070208 -1.958093
15.380000 0.105054 -1.949621
15.400000 0.140074 -1.947100
15.420000 0.171728 -1.947716
15.440000 0.199394 -1.959857
15.460000 0.231539 -1.951945
15.480000 0.269424 -1.945140
15.500000 0.299338 -1.944397
15.520000 0.325274 -1.953724
15.540000 0.352640 -1.950909
15.560000 0.380932 -1.950335
15.580000 0.407947 -1.943949
15.600000 0.432635 -1.955054
15.620000 0.455178 -1.947156
15.640000 0.482844 -1.951623
15.660000 0.512276 -1.953584
15.680000 0.535310 -1.955992
15.700000 0.555177 -1.943851
15.720000 0.574448 -1.952575
15.740000 0.594394 -1.953738
15.760000 0.618540 -1.956048
15.780000 0.636367 -1.952575
15.800000 0.656640 -1.952071
15.820000 0.676612 -1.959899
15.840000 0.699956 -1.959451
15.860000 0.721258 -1.960263
15.880000 0.742432 -1.958611
15.900000 0.763049 -1.953388
15.920000 0.786579 -1.953766
15.940000 0.809314 -1.952169
15.960000 0.828786 -1.957322
15.980000 0.846598 -1.955978
16.000000 0.861673 -1.954886
16.020000 0.883811 -1.956006
16.040000 0.900005 -1.951525
16.060000 0.916771 -1.950237
16.080000 0.928569 -1.947562
16.100000 0.938421 -1.944523
16.120000 0.947068 -1.944635
16.140000 0.956742 -1.956426
16.160000 0.964831 -1.949173
16.180000 0.973167 -1.953584
16.200000 0.980571 -1.951791
16.220000 0.985093 -1.952561
16.240000 0.989495 -1.953107
16.260000 0.995651 -1.954172
16.280000 0.999527 -1.960823
16.300000 0.999124 -1.957841
16.320000 1.000698 -1.953458
16.340000 1.000765 -1.947576
16.360000 1.001295 -1.957435
16.380000 1.003588 -1.952855
16.400000 1.005368 -1.950405
16.420000 1.006076 -1.956104
16.440000 1.006788 -1.957308
16.460000 1.005953 -1.962490
16.480000 1.003556 -1.962042
16.500000 1.003760 -1.956636
16.520000 1.004542 -1.948010
16.540000 1.006540 -1.953220
16.560000 1.010142 -1.956440
16.580000 1.014480 -1.956846
16.600000 1.018669 -1.956062
16.620000 1.018059 -1.956986
16.640000 1.019766 -1.955082
16.660000 1.020326 -1.961930
16.680000 1.018180 -1.954186
16.700000 1.013795 -1.954942
16.720000 1.010260 -1.950615
16.740000 1.009555 -1.950433
16.760000 1.005736 -1.959213
16.780000 0.999332 -1.953766
16.800000 0.992226 -1.958751
16.820000 0.986842 -1.958681
16.840000 0.977945 -1.949901
16.860000 0.971987 -1.957140
16.880000 0.964663 -1.955894
16.900000 0.955358 -1.951721
16.920000 0.946504 -1.958471
16.940000 0.937572 -1.953472
16.960000 0.929847 -1.954074
16.980000 0.921443 -1.958373
17.000000 0.912060 -1.951623
17.020000 0.901778 -1.953612
17.040000 0.887934 -1.954466
17.060000 0.876198 -1.952827
17.080000 0.863241 -1.951077
17.100000 0.851329 -1.958891
17.120000 0.838602 -1.957561
17.140000 0.826823 -1.962070
17.160000 0.816338 -1.956664
17.180000 0.802989 -1.952785
17.200000 0.791506 -1.947198
17.220000 0.781870 -1.948220
17.240000 0.771262 -1.951819
17.260000 0.760322 -1.955404
17.280000 0.749319 -1.949467
17.300000 0.739242 -1.949901
17.320000 0.727288 -1.953065
17.340000 0.713232 -1.962518
17.360000 0.698917 -1.953360
17.380000 0.684837 -1.960151
17.400000 0.667748 -1.958569
17.420000 0.651451 -1.956398
17.440000 0.637065 -1.957238
17.460000 0.621643 -1.944061
17.480000 0.607149 -1.955124
17.500000 0.592529 -1.953990
17.520000 0.583111 -1.953850
17.540000 0.574280 -1.955880
17.560000 0.564897 -1.959857
17.580000 0.556453 -1.955292
17.600000 0.549497 -1.951497
17.620000 0.541899 -1.958247
17.640000 0.534353 -1.959521
17.660000 0.524899 -1.963624
17.680000 0.514008 -1.951987
17.700000 0.502201 -1.954046
17.720000 0.492094 -1.952323
17.740000 0.481937 -1.954718
17.760000 0.470560 -1.953093
17.780000 0.461629 -1.948780
17.800000 0.454189 -1.951469
17.820000 0.445757 -1.957729
17.840000 0.439238 -1.956986
17.860000 0.434950 -1.951147
17.880000 0.428841 -1.960823
17.900000 0.426084 -1.962672
17.920000 0.420026 -1.951609
17.940000 0.413690 -1.950475
17.960000 0.406108 -1.956944
17.980000 0.399778 -1.946330
18.000000 0.393732 -1.954900
18.020000 0.384960 -1.952813
18.040000 0.374015 -1.957224
18.060000 0.363248 -1.950503
18.080000 0.351637 -1.954270
18.100000 0.338236 -1.951679
18.120000 0.322661 -1.949327
18.140000 0.307649 -1.945896
18.160000 0.294320 -1.949957
18.180000 0.282847 -1.952141
18.200000 0.271594 -1.952239
18.220000 0.263617 -1.952631
18.240000 0.256827 -1.947492
18.260000 0.249862 -1.946960
18.280000 0.244554 -1.949075
18.300000 0.241598 -1.954928
18.320000 0.239750 -1.951315
18.340000 0.233993 -1.959885
18.360000 0.228476 -1.946582
18.380000 0.221798 -1.952309
18.400000 0.213690 -1.951973
18.420000 0.204659 -1.946274
18.440000 0.197052 -1.955586
18.460000 0.187265 -1.956748
18.480000 0.177567 -1.949117
18.500000 0.169236 -1.946386
18.520000 0.163929 -1.944902
18.540000 0.155797 -1.947002
18.560000 0.148844 -1.944257
18.580000 0.146967 -1.954298
18.600000 0.142481 -1.953430
18.620000 0.135070 -1.948220
18.640000 0.128918 -1.946904
18.660000 0.121823 -1.948514
18.680000 0.114038 -1.951441
18.700000 0.105990 -1.950251
18.720000 0.095453 -1.953864
18.740000 0.084771 -1.946736
18.760000 0.075769 -1.951679
18.780000 0.065848 -1.951791
18.800000 0.054619 -1.948612
18.820000 0.043737 -1.951833
18.840000 0.033187 -1.961453
18.860000 0.023928 -1.954550
18.880000 0.013638 -1.958597
18.900000 0.005119 -1.953696
18.920000 -0.001811 -1.949929
18.940000 -0.007499 -1.953878
18.960000 -0.011475 -1.952995
18.980000 -0.012390 -1.951259
19.000000 -0.012914 -1.950489
19.020000 -0.012479 -1.955390
19.040000 -0.013230 -1.952281
19.060000 -0.012829 -1.953037
19.080000 -0.009874 -1.944005
19.100000 -0.009554 -1.945042
19.120000 -0.009690 -1.950825
19.140000 -0.010173 -1.956132
19.160000 -0.007155 -1.960445
19.180000 -0.005698 -1.960823
19.200000 -0.005234 -1.959507
19.220000 -0.005262 -1.950321
19.240000 -0.002681 -1.956174
19.260000 -0.002212 -1.959955
19.280000 -0.000850 -1.946736
19.300000 0.000769 -1.952631
19.320000 0.003019 -1.958961
19.340000 0.002437 -1.954648
19.360000 0.002742 -1.957505
19.380000 0.005294 -1.952701
19.400000 0.004568 -1.960837
19.420000 0.004444 -1.956930
19.440000 0.004498 -1.957547
19.460000 0.005356 -1.957785
19.480000 0.005385 -1.953360
19.500000 0.003349 -1.957042
19.520000 0.003560 -1.962056
19.540000 0.001992 -1.962728
19.560000 0.003189 -1.961047
19.580000 0.002318 -1.959997
19.600000 0.002407 -1.951301
19.620000 0.002833 -1.956020
19.640000 0.002249 -1.957659
19.660000 0.001452 -1.954718
19.680000 0.001511 -1.958079
19.700000 0.001409 -1.957196
19.720000 0.001765 -1.958135
19.740000 0.000040 -1.946722
19.760000 0.001034 -1.952911
19.780000 0.002179 -1.944089
19.800000 0.000735 -1.952687
19.820000 0.000091 -1.958975
19.840000 -0.001617 -1.965430
19.860000 0.000429 -1.949915
19.880000 0.000437 -1.953822
19.900000 -0.001685 -1.953374
19.920000 0.000394 -1.960655
19.940000 0.000233 -1.958583
19.960000 0.003470 -1.961986
19.980000 0.003043 -1.959241
20.000000 0.002888 -1.967909
20.020000 0.003147 -1.953682
20.040000 0.005081 -1.962238
20.060000 0.005172 -1.958947
20.080000 0.008050 -1.955278
20.100000 0.009308 -1.960571
20.120000 0.009211 -1.959101
20.140000 0.010785 -1.960053
20.160000 0.010936 -1.958653
20.180000 0.010123 -1.955390
20.200000 0.009599 -1.961355
20.220000 0.010039 -1.954088
20.240000 0.010502 -1.956412
20.260000 0.010095 -1.961636
20.280000 0.008364 -1.959409
20.300000 0.005102 -1.956020
20.320000 0.005699 -1.964128
20.340000 0.004704 -1.962728
20.360000 0.003745 -1.964226
20.380000 0.002636 -1.953500
20.400000 0.003223 -1.960613
20.420000 0.001961 -1.957294
20.440000 -0.000307 -1.950461
20.460000 -0.000844 -1.958597
20.480000 -0.001748 -1.944481
20.500000 -0.004042 -1.958373
20.520000 -0.004235 -1.951819
20.540000 -0.005678 -1.951791
20.560000 -0.006100 -1.956146
20.580000 -0.006130 -1.947758
20.600000 -0.008002 -1.958765
20.620000 -0.008082 -1.958205
20.640000 -0.008141 -1.969323
20.660000 -0.007814 -1.955418
20.680000 -0.008325 -1.954830
20.700000 -0.006958 -1.947492
20.720000 -0.004357 -1.952967
20.740000 -0.004969 -1.955740
20.760000 -0.003771 -1.949411
20.780000 -0.005307 -1.955572
20.800000 -0.005905 -1.954396
20.820000 -0.003283 -1.960165
20.840000 -0.001953 -1.961874
20.860000 0.000193 -1.951931
20.880000 0.001462 -1.954340
20.900000 0.000755 -1.953724
20.920000 0.000921 -1.966551
20.940000 0.000893 -1.960585
20.960000 -0.001002 -1.958765
20.980000 -0.001918 -1.955180
21.000000 0.001075 -1.960613
21.020000 0.001675 -1.955922
21.040000 0.002213 -1.960403
21.060000 0.001332 -1.959983
21.080000 0.001454 -1.959479
21.100000 0.002271 -1.953388
21.120000 0.003663 -1.954886
21.140000 0.004937 -1.952589
21.160000 0.005658 -1.954060
21.180000 0.006614 -1.958051
21.200000 0.007159 -1.956524
21.220000 0.007430 -1.950349
21.240000 0.008287 -1.956090
21.260000 0.009043 -1.949299
21.280000 0.010088 -1.955670
21.300000 0.009170 -1.951259
21.320000 0.009870 -1.959339
21.340000 0.010017 -1.957252
21.360000 0.008666 -1.950909
21.380000 0.009626 -1.948934
21.400000 0.009940 -1.956944
21.420000 0.010115 -1.959521
21.440000 0.010224 -1.951609
21.460000 0.009744 -1.956580
21.480000 0.010191 -1.957967
21.500000 0.010385 -1.956762
21.520000 0.008412 -1.952631
21.540000 0.007373 -1.957379
21.560000 0.006433 -1.961748
21.580000 0.004398 -1.952477
21.600000 0.003480 -1.952505
21.620000 0.004762 -1.953626
21.640000 0.005176 -1.952267
21.660000 0.005935 -1.948388
21.680000 0.003757 -1.944187
21.700000 0.003371 -1.956090
21.720000 0.002298 -1.951287
21.740000 0.001115 -1.951119
21.760000 0.000816 -1.957280
21.780000 0.000506 -1.954746
21.800000 0.002946 -1.957407
21.820000 0.000822 -1.961467
21.840000 -0.000953 -1.955740
21.860000 -0.000573 -1.950503
21.880000 -0.000055 -1.957098
21.900000 0.000548 -1.948528
21.920000 -0.000046 -1.950797
21.940000 0.000834 -1.952309
21.960000 0.000019 -1.956202
21.980000 0.001007 -1.954214
22.000000 0.003797 -1.950265
22.020000 0.003639 -1.959493
22.040000 0.003308 -1.956944
22.060000 0.004052 -1.958723
22.080000 0.003911 -1.954438
22.100000 0.002933 -1.957252
22.120000 0.003449 -1.955726
22.140000 0.003094 -1.960417
22.160000 0.001364 -1.959717
22.180000 0.003160 -1.961818
22.200000 0.002700 -1.959591
22.220000 0.002342 -1.956734
22.240000 0.001709 -1.955446
22.260000 0.002103 -1.945126
22.280000 0.001636 -1.957042
22.300000 0.001543 -1.951651
22.320000 0.001354 -1.947604
22.340000 0.002414 -1.953696
22.360000 0.001217 -1.952785
22.380000 0.001312 -1.950055
22.400000 0.003491 -1.952351
22.420000 0.004950 -1.963862
22.440000 0.007198 -1.957617
22.460000 0.007282 -1.956216
22.480000 0.006544 -1.951651
22.500000 0.006959 -1.953023
22.520000 0.008567 -1.958233
22.540000 0.009063 -1.961832
22.560000 0.008272 -1.951077
22.580000 0.008343 -1.955194
22.600000 0.007862 -1.963470
22.620000 0.005928 -1.959829
22.640000 0.006120 -1.959381
22.660000 0.005882 -1.954816
22.680000 0.005722 -1.950489
22.700000 0.005292 -1.958275
22.720000 0.005034 -1.956034
22.740000 0.005919 -1.951875
22.760000 0.005526 -1.953710
22.780000 0.005644 -1.948654
22.800000 0.005204 -1.952631
22.820000 0.003089 -1.953444
22.840000 0.003330 -1.960291
22.860000 0.003209 -1.955684
22.880000 0.001157 -1.956048
22.900000 0.000866 -1.963330
22.920000 -0.000362 -1.949845
22.940000 -0.001490 -1.958737
22.960000 -0.003573 -1.957168
22.980000 -0.005144 -1.949663
23.000000 -0.007000 -1.955936
23.020000 -0.006497 -1.948472
23.040000 -0.007603 -1.945630
23.060000 -0.007902 -1.949299
23.080000 -0.008859 -1.944019
23.100000 -0.009138 -1.953780
23.120000 -0.011252 -1.960627
23.140000 -0.011652 -1.957238
23.160000 -0.010541 -1.950615
23.180000 -0.008911 -1.949019
23.200000 -0.007690 -1.952855
23.220000 -0.007436 -1.955222
23.240000 -0.004059 -1.963582
23.260000 -0.005140 -1.958065
23.280000 -0.005087 -1.953065
23.300000 -0.004362 -1.954508
23.320000 -0.003913 -1.957589
23.340000 -0.004316 -1.964170
23.360000 -0.004719 -1.963386
23.380000 -0.004860 -1.958121
23.400000 -0.004752 -1.957603
23.420000 -0.004121 -1.958387
23.440000 -0.004870 -1.952057
23.460000 -0.005541 -1.961524
23.480000 -0.005011 -1.944369
23.500000 -0.006449 -1.956944
23.520000 -0.006745 -1.951175
23.540000 -0.007546 -1.955572
23.560000 -0.008028 -1.948570
23.580000 -0.008082 -1.954886
23.600000 -0.007519 -1.952015
23.620000 -0.007059 -1.954368
23.640000 -0.007835 -1.956986
23.660000 -0.005830 -1.949369
23.680000 -0.006290 -1.957953
23.700000 -0.004005 -1.961510
23.720000 -0.003696 -1.950279
23.740000 -0.003917 -1.951217
23.760000 -0.003325 -1.951721
23.780000 -0.002683 -1.955852
23.800000 -0.000649 -1.956678
23.820000 0.001371 -1.951623
23.840000 0.002193 -1.960697
23.860000 0.002631 -1.960431
23.880000 0.003475 -1.962630
23.900000 0.003213 -1.960613
23.920000 0.003922 -1.960809
23.940000 0.005889 -1.954886
23.960000 0.006351 -1.954718
23.980000 0.007166 -1.961033
24.000000 0.009192 -1.950755
24.020000 0.009616 -1.953149
24.040000 0.010560 -1.955544
24.060000 0.010315 -1.949761
24.080000 0.012619 -1.951539
24.100000 0.011595 -1.953107
24.120000 0.011110 -1.949817
24.140000 0.010638 -1.959213
24.160000 0.010356 -1.949243
24.180000 0.011205 -1.954984
24.200000 0.014287 -1.957561
24.220000 0.012620 -1.952085
24.240000 0.010042 -1.948430
24.260000 0.008000 -1.960781
24.280000 0.006430 -1.953948
24.300000 0.004385 -1.956706
24.320000 0.003992 -1.955264
24.340000 0.003974 -1.951511
24.360000 0.004109 -1.955642
24.380000 0.002877 -1.955978
24.400000 0.003236 -1.958387
24.420000 0.004097 -1.946204
24.440000 0.005015 -1.943081
24.460000 0.007208 -1.957729
24.480000 0.006139 -1.956944
24.500000 0.007572 -1.950937
24.520000 0.006554 -1.955740
24.540000 0.006968 -1.956104
24.560000 0.007929 -1.962924
24.580000 0.005331 -1.953850
24.600000 0.004604 -1.953906
24.620000 0.004196 -1.950181
24.640000 0.003702 -1.951581
24.660000 0.001415 -1.951133
24.680000 0.000203 -1.964338
24.700000 -0.000072 -1.957743
24.720000 0.000491 -1.961748
24.740000 -0.000808 -1.958107
24.760000 0.000593 -1.953794
24.780000 0.002559 -1.951959
24.800000 0.002304 -1.965514
24.820000 0.002140 -1.961117
24.840000 0.000873 -1.955432
24.860000 0.001112 -1.951035
24.880000 0.002120 -1.952827
24.900000 0.002248 -1.953612
24.920000 0.002811 -1.958485
24.940000 0.003177 -1.952771
24.960000 0.004421 -1.954928
24.980000 0.005396 -1.959297
25.000000 0.006807 -1.951273
25.020000 0.005522 -1.959045
25.040000 0.006515 -1.945980
25.060000 0.007330 -1.948094
25.080000 0.008904 -1.947184
25.100000 0.009547 -1.952995
25.120000 0.011290 -1.950055
25.140000 0.011845 -1.952645
25.160000 0.011869 -1.954536
25.180000 0.013062 -1.951777
25.200000 0.013596 -1.947828
25.220000 0.013524 -1.952575
25.240000 0.012119 -1.952463
25.260000 0.010358 -1.944916
25.280000 0.009622 -1.951609
25.300000 0.009157 -1.951091
25.320000 0.009271 -1.948122
25.340000 0.009350 -1.955614
25.360000 0.006817 -1.954494
25.380000 0.004644 -1.950209
25.400000 0.004100 -1.947660
25.420000 0.003193 -1.955698
25.440000 0.003523 -1.953990
25.460000 0.001832 -1.955376
25.480000 0.001450 -1.952491
25.500000 0.000951 -1.953318
25.520000 -0.000838 -1.956132
25.540000 -0.001190 -1.953570
25.560000 -0.001024 -1.950279
25.580000 -0.001717 -1.955096
25.600000 -0.001950 -1.952379
25.620000 -0.002727 -1.945882
25.640000 -0.004448 -1.947884
25.660000 -0.002579 -1.956174
25.680000 -0.001766 -1.952057
25.700000 -0.004008 -1.944411
25.720000 -0.005539 -1.956118
25.740000 -0.005175 -1.950797
25.760000 -0.004520 -1.949747
25.780000 -0.004048 -1.944874
25.800000 -0.003389 -1.941499
25.820000 -0.004206 -1.947184
25.840000 -0.003790 -1.949033
25.860000 -0.003493 -1.950321
25.880000 -0.003001 -1.945686
25.900000 -0.003107 -1.948458
25.920000 -0.002237 -1.946764
25.940000 -0.002027 -1.942731
25.960000 -0.001791 -1.950013
25.980000 -0.002290 -1.945560
26.000000 -0.003573 -1.949663
26.020000 -0.001914 -1.956216
26.040000 -0.001891 -1.956048
26.060000 -0.001501 -1.952533
26.080000 -0.001431 -1.952253
26.100000 -0.000078 -1.955208
26.120000 0.001109 -1.952267
26.140000 -0.000415 -1.959871
26.160000 -0.001935 -1.942731
26.180000 -0.000457 -1.949663
26.200000 -0.000799 -1.948430
26.220000 -0.000660 -1.949145
26.240000 0.000081 -1.953794
26.260000 -0.002385 -1.954914
26.280000 -0.002548 -1.953402
26.300000 -0.002001 -1.949145
26.320000 -0.001006 -1.956244
26.340000 -0.000429 -1.951315
26.360000 -0.000815 -1.955544
26.380000 -0.000143 -1.954704
26.400000 -0.000453 -1.952953
26.420000 -0.001885 -1.951735
26.440000 -0.001518 -1.949425
26.460000 -0.001981 -1.962322
26.480000 -0.002221 -1.951147
26.500000 -0.002643 -1.954046
26.520000 -0.002088 -1.953051
26.540000 -0.004037 -1.952015
26.560000 -0.003804 -1.951119
26.580000 -0.003923 -1.957687
26.600000 -0.003208 -1.952393
26.620000 -0.002707 -1.943529
26.640000 -0.001616 -1.949327
26.660000 -0.000120 -1.952323
26.680000 0.001381 -1.942171
26.700000 0.003065 -1.953640
26.720000 0.004092 -1.951287
26.740000 0.005261 -1.949439
26.760000 0.004454 -1.943991
26.780000 0.003363 -1.952701
26.800000 0.004622 -1.949341
26.820000 0.005731 -1.945322
26.840000 0.004754 -1.951805
26.860000 0.004062 -1.945910
26.880000 0.005108 -1.951399
26.900000 0.006140 -1.955572
26.920000 0.004504 -1.945042
26.940000 0.002765 -1.949649
26.960000 0.002771 -1.952197
26.980000 0.002695 -1.948626
27.000000 0.000866 -1.939048
27.020000 0.001184 -1.942325
27.040000 0.001495 -1.947436
27.060000 0.002731 -1.949775
27.080000 0.003799 -1.952589
27.100000 0.003414 -1.949775
27.120000 0.002947 -1.955460
27.140000 0.001058 -1.945994
27.160000 0.001533 -1.944888
27.180000 0.003015 -1.945210
27.200000 0.003630 -1.948696
27.220000 0.002095 -1.953752
27.240000 0.001570 -1.960081
27.260000 -0.000039 -1.964394
27.280000 0.002021 -1.949957
27.300000 0.000320 -1.948808
27.320000 -0.000524 -1.949089
27.340000 -0.000968 -1.956412
27.360000 0.000233 -1.949579
27.380000 -0.001359 -1.950083
27.400000 -0.000978 -1.953388
27.420000 -0.000784 -1.950293
27.440000 -0.000283 -1.949467
27.460000 0.001383 -1.954466
27.480000 0.000099 -1.948262
27.500000 -0.000473 -1.948710
27.520000 -0.001044 -1.947422
27.540000 -0.002345 -1.946946
27.560000 -0.004976 -1.944005
27.580000 -0.003923 -1.953402
27.600000 -0.004021 -1.953738
27.620000 -0.005050 -1.953276
27.640000 -0.005893 -1.953626
27.660000 -0.004662 -1.955530
27.680000 -0.003609 -1.956706
27.700000 -0.004801 -1.956552
27.720000 -0.006003 -1.955236
27.740000 -0.006545 -1.951357
27.760000 -0.005569 -1.946554
27.780000 -0.004974 -1.947506
27.800000 -0.004424 -1.948808
27.820000 -0.001654 -1.947870
27.840000 -0.001140 -1.948836
27.860000 -0.000575 -1.958009
27.880000 -0.001137 -1.952757
27.900000 -0.001875 -1.948094
27.920000 -0.001164 -1.961762
27.940000 -0.000812 -1.954662
27.960000 0.002281 -1.955740
27.980000 0.003070 -1.956454
28.000000 0.002334 -1.954438
28.020000 0.001810 -1.945182
28.040000 0.003191 -1.942535
28.060000 0.004343 -1.950615
28.080000 0.005234 -1.947814
28.100000 0.004825 -1.953486
28.120000 0.007186 -1.958527
28.140000 0.006764 -1.960739
28.160000 0.007509 -1.949019
28.180000 0.006384 -1.959367
28.200000 0.008278 -1.950517
28.220000 0.007584 -1.946400
28.240000 0.008550 -1.955110
28.260000 0.008467 -1.953598
28.280000 0.006801 -1.955670
28.300000 0.007196 -1.953121
28.320000 0.006011 -1.948682
28.340000 0.005648 -1.958457
28.360000 0.006336 -1.953514
28.380000 0.006939 -1.953346
28.400000 0.004558 -1.952575
28.420000 0.006324 -1.951889
28.440000 0.007630 -1.945378
28.460000 0.008252 -1.952757
28.480000 0.006858 -1.956146
28.500000 0.005223 -1.954130
28.520000 0.004750 -1.947254
28.540000 0.003678 -1.949649
28.560000 0.005239 -1.948318
28.580000 0.002634 -1.943347
28.600000 0.001017 -1.946666
28.620000 0.001286 -1.941499
28.640000 0.000866 -1.951273
28.660000 0.000311 -1.953794
28.680000 0.000137 -1.945028
28.700000 -0.001003 -1.953626
28.720000 -0.000086 -1.951749
28.740000 -0.000408 -1.956188
28.760000 0.000376 -1.951049
28.780000 -0.001065 -1.945266
28.800000 -0.001351 -1.951931
28.820000 -0.001697 -1.953107
28.840000 -0.003105 -1.955306
28.860000 -0.003417 -1.955236
28.880000 -0.004569 -1.946568
28.900000 -0.003454 -1.948654
28.920000 -0.003402 -1.949719
28.940000 -0.004211 -1.949775
28.960000 -0.003651 -1.951483
28.980000 -0.004121 -1.950139
29.000000 -0.002818 -1.943599
29.020000 -0.002374 -1.945392
29.040000 -0.003373 -1.956342
29.060000 -0.004812 -1.947030
29.080000 -0.004621 -1.959465
29.100000 -0.003867 -1.954340
29.120000 -0.002643 -1.946036
29.140000 -0.001081 -1.944523
29.160000 0.000190 -1.945812
29.180000 -0.000143 -1.958163
29.200000 0.000970 -1.947212
29.220000 0.002187 -1.949341
29.240000 0.001798 -1.955040
29.260000 0.001933 -1.946036
29.280000 0.001705 -1.945812
29.300000 0.000678 -1.950839
29.320000 -0.000376 -1.955264
29.340000 -0.001593 -1.950097
29.360000 -0.002467 -1.950405
29.380000 -0.004636 -1.948892
29.400000 -0.003584 -1.954760
29.420000 -0.001279 -1.950013
29.440000 -0.000006 -1.955936
29.460000 -0.002635 -1.961524
29.480000 -0.001211 -1.952967
29.500000 -0.001467 -1.952099
29.520000 -0.001548 -1.955936
29.540000 -0.002154 -1.950937
29.560000 -0.002536 -1.952561
29.580000 -0.004060 -1.955684
29.600000 -0.003344 -1.955054
29.620000 -0.003150 -1.951903
29.640000 -0.003860 -1.958765
29.660000 -0.003731 -1.957154
29.680000 -0.005360 -1.949257
29.700000 -0.005638 -1.950867
29.720000 -0.004978 -1.945210
29.740000 -0.004379 -1.950195
29.760000 -0.005798 -1.948206
29.780000 -0.006517 -1.946792
29.800000 -0.006781 -1.941009
29.820000 -0.006524 -1.951721
29.840000 -0.007619 -1.960921
29.860000 -0.004687 -1.959703
29.880000 -0.002589 -1.954326
29.900000 -0.002231 -1.960053
29.920000 -0.000634 -1.946848
29.940000 -0.001810 -1.948864
29.960000 -0.000866 -1.947338
29.980000 -0.002860 -1.948178
30.000000 -0.003275 -1.947394
30.020000 -0.004789 -1.953934
30.040000 -0.003925 -1.958009
30.060000 -0.006112 -1.955656
30.080000 -0.008952 -1.951763
30.100000 -0.011115 -1.942703
30.120000 -0.012244 -1.950041
30.140000 -0.011814 -1.949971
30.160000 -0.011348 -1.945448
30.180000 -0.011430 -1.950727
30.200000 -0.010993 -1.947646
30.220000 -0.009784 -1.952351
30.240000 -0.011068 -1.953486
30.260000 -0.010995 -1.947422
30.280000 -0.008238 -1.951819
30.300000 -0.008460 -1.950027
30.320000 -0.009117 -1.945714
30.340000 -0.009649 -1.947562
30.360000 -0.008611 -1.946190
30.380000 -0.005975 -1.953962
30.400000 -0.004841 -1.948430
30.420000 -0.006204 -1.944369
30.440000 -0.006616 -1.946890
30.460000 -0.005498 -1.946876
30.480000 -0.003764 -1.949355
30.500000 -0.001186 -1.944495
30.520000 0.001338 -1.939734
30.540000 0.001965 -1.948682
30.560000 0.003580 -1.946134
30.580000 0.006887 -1.950769
30.600000 0.009701 -1.952169
30.620000 0.011085 -1.940364
30.640000 0.012580 -1.939468
30.660000 0.014870 -1.949257
30.680000 0.013266 -1.943109
30.700000 0.013219 -1.943333
30.720000 0.012309 -1.947142
30.740000 0.011891 -1.943879
30.760000 0.013522 -1.941359
30.780000 0.010513 -1.945490
30.800000 0.009764 -1.947380
30.820000 0.008803 -1.949019
30.840000 0.006241 -1.945364
30.860000 0.002869 -1.941093
30.880000 0.001173 -1.950517
30.900000 0.001272 -1.941947
30.920000 0.002800 -1.945266
30.940000 0.003253 -1.942241
30.960000 0.002112 -1.952211
30.980000 0.000846 -1.947380
31.000000 0.001527 -1.954984
31.020000 -0.000059 -1.946022
31.040000 -0.001043 -1.949004
31.060000 -0.000447 -1.943067
31.080000 -0.001339 -1.952967
31.100000 -0.001506 -1.949439
31.120000 -0.002784 -1.945728
31.140000 -0.001808 -1.949621
31.160000 0.000250 -1.944467
31.180000 -0.001227 -1.946610
31.200000 -0.003882 -1.950503
31.220000 -0.004657 -1.952015
31.240000 -0.004548 -1.952113
31.260000 -0.003107 -1.942115
31.280000 -0.003454 -1.949033
31.300000 -0.003325 -1.941625
31.320000 -0.002277 -1.957799
31.340000 -0.001431 -1.951777
31.360000 -0.000117 -1.954032
31.380000 0.001078 -1.950951
31.400000 0.000592 -1.951035
31.420000 0.000664 -1.947800
31.440000 0.001410 -1.950209
31.460000 0.002818 -1.955278
31.480000 0.002615 -1.954662
31.500000 0.003653 -1.950237
31.520000 0.003504 -1.945462
31.540000 0.005745 -1.948164
31.560000 0.005621 -1.947534
31.580000 0.002230 -1.951035
31.600000 0.001731 -1.950783
31.620000 0.000592 -1.947576
31.640000 -0.000534 -1.950951
31.660000 0.000296 -1.953696
31.680000 -0.000904 -1.947380
31.700000 -0.000270 -1.956202
31.720000 -0.000068 -1.946596
31.740000 -0.000597 -1.950209
31.760000 -0.001902 -1.949943
31.780000 -0.003875 -1.949117
31.800000 -0.005476 -1.941331
31.820000 -0.006097 -1.941849
31.840000 -0.004923 -1.951609
31.860000 -0.005336 -1.955460
31.880000 -0.005561 -1.944523
31.900000 -0.006192 -1.944299
31.920000 -0.008090 -1.948598
31.940000 -0.008559 -1.948472
31.960000 -0.008999 -1.946554
31.980000 -0.010746 -1.946442
32.000000 -0.010169 -1.943067
32.020000 -0.009001 -1.945994
32.040000 -0.009735 -1.950629
32.060000 -0.008144 -1.954228
32.080000 -0.007359 -1.950237
32.100000 -0.005102 -1.949229
32.120000 -0.004741 -1.940883
32.140000 -0.004696 -1.945406
32.160000 -0.004177 -1.946302
32.180000 -0.002266 -1.952617
32.200000 -0.002244 -1.946932
32.220000 -0.000646 -1.935715
32.240000 0.000389 -1.940448
32.260000 0.000489 -1.946806
32.280000 0.000300 -1.951329
32.300000 0.000699 -1.946246
32.320000 0.002272 -1.947786
32.340000 0.001667 -1.945336
32.360000 0.001319 -1.945560
32.380000 0.000557 -1.945882
32.400000 0.001857 -1.943039
32.420000 0.001495 -1.943319
32.440000 0.000690 -1.943907
32.460000 0.000265 -1.947562
32.480000 -0.001173 -1.942311
32.500000 -0.000970 -1.949425
32.520000 -0.001172 -1.942353
32.540000 -0.001078 -1.949019
32.560000 -0.002564 -1.949439
32.580000 -0.003250 -1.943585
32.600000 -0.003331 -1.954648
32.620000 -0.002282 -1.952855
32.640000 -0.003496 -1.949033
32.660000 -0.002980 -1.945504
32.680000 -0.001452 -1.947254
32.700000 -0.001098 -1.946736
32.720000 -0.000392 -1.942759
32.740000 0.001124 -1.950923
32.760000 0.002153 -1.949453
32.780000 0.000935 -1.942143
32.800000 0.001900 -1.949663
32.820000 0.003259 -1.949089
32.840000 0.001364 -1.941233
32.860000 0.004027 -1.943599
32.880000 0.003990 -1.942605
32.900000 0.003192 -1.946078
32.920000 0.002559 -1.953304
32.940000 0.004228 -1.947086
32.960000 0.005194 -1.950027
32.980000 0.006592 -1.952337
33.000000 0.005088 -1.945532
33.020000 0.003655 -1.951399
33.040000 0.001320 -1.952827
33.060000 0.000566 -1.954970
33.080000 0.001534 -1.951903
33.100000 0.000470 -1.955096
33.120000 -0.000158 -1.950559
33.140000 -0.001141 -1.946666
33.160000 -0.001348 -1.942199
33.180000 -0.004027 -1.949033
33.200000 -0.004982 -1.948374
33.220000 -0.005849 -1.948584
33.240000 -0.007293 -1.949201
33.260000 -0.007125 -1.949159
33.280000 -0.007374 -1.951021
33.300000 -0.007323 -1.953290
33.320000 -0.009425 -1.946526
33.340000 -0.011611 -1.946064
33.360000 -0.012415 -1.960683
33.380000 -0.011789 -1.954508
33.400000 -0.011243 -1.960991
33.420000 -0.010048 -1.948248
33.440000 -0.009926 -1.950867
33.460000 -0.007468 -1.951091
33.480000 -0.006439 -1.943095
33.500000 -0.006692 -1.955110
33.520000 -0.006814 -1.948668
33.540000 -0.006939 -1.951203
33.560000 -0.006587 -1.940042
33.580000 -0.006100 -1.955390
33.600000 -0.004592 -1.947856
33.620000 -0.003305 -1.947408
33.640000 -0.002376 -1.954970
33.660000 -0.000399 -1.952155
33.680000 -0.000529 -1.950503
33.700000 0.001824 -1.948528
33.720000 0.002332 -1.948612
33.740000 0.003206 -1.948654
33.760000 0.000568 -1.948752
33.780000 -0.000639 -1.949453
33.800000 -0.000497 -1.951049
33.820000 -0.000996 -1.952113
33.840000 0.000484 -1.954550
33.860000 0.001215 -1.951399
33.880000 0.001837 -1.949047
33.900000 -0.000825 -1.947254
33.920000 -0.001424 -1.948346
33.940000 -0.001355 -1.953206
33.960000 -0.002200 -1.948738
33.980000 -0.002379 -1.946120
34.000000 -0.000641 -1.950769
34.020000 -0.000565 -1.955180
34.040000 -0.001317 -1.951413
34.060000 -0.000943 -1.947338
34.080000 -0.002481 -1.954550
34.100000 -0.003601 -1.954410
34.120000 -0.005081 -1.949173
34.140000 -0.004094 -1.952477
34.160000 -0.002365 -1.948696
34.180000 -0.001694 -1.956580
34.200000 -0.000724 -1.957673
34.220000 -0.002195 -1.954662
34.240000 -0.001280 -1.960487
34.260000 -0.001131 -1.956594
34.280000 -0.002010 -1.952519
34.300000 -0.002798 -1.949761
34.320000 -0.002914 -1.950545
34.340000 -0.004306 -1.950405
34.360000 -0.004036 -1.949425
34.380000 -0.002837 -1.948472
34.400000 -0.002824 -1.946064
34.420000 -0.003320 -1.943739
34.440000 -0.004489 -1.945476
34.460000 -0.004675 -1.946974
34.480000 -0.005398 -1.944649
34.500000 -0.003058 -1.945042
34.520000 -0.004067 -1.946512
34.540000 -0.004450 -1.955488
34.560000 -0.004130 -1.954074
34.580000 -0.001399 -1.958905
34.600000 0.001149 -1.949859
34.620000 -0.000606 -1.949299
34.640000 -0.000775 -1.945462
34.660000 -0.002241 -1.954578
34.680000 -0.001299 -1.944467
34.700000 -0.004369 -1.943459
34.720000 -0.004848 -1.944579
34.740000 -0.005026 -1.948696
34.760000 -0.003817 -1.950699
34.780000 -0.004558 -1.943277
34.800000 -0.003343 -1.941667
34.820000 -0.004285 -1.945994
34.840000 -0.004561 -1.946120
34.860000 -0.004651 -1.944607
34.880000 -0.004982 -1.950055
34.900000 -0.003404 -1.954676
34.920000 -0.004115 -1.950405
34.940000 -0.004268 -1.955978
34.960000 -0.004829 -1.953318
34.980000 -0.005089 -1.951329
35.000000 -0.004463 -1.942815
35.020000 -0.007202 -1.953093
35.040000 -0.007240 -1.952533
35.060000 -0.008146 -1.950825
35.080000 -0.008757 -1.953346
35.100000 -0.008191 -1.944173
35.120000 -0.008854 -1.952127
35.140000 -0.008349 -1.946960
35.160000 -0.006579 -1.957000
35.180000 -0.006732 -1.949565
35.200000 -0.006416 -1.944747
35.220000 -0.006926 -1.948332
35.240000 -0.005463 -1.953654
35.260000 -0.002835 -1.950615
35.280000 -0.002468 -1.945462
35.300000 -0.001203 -1.947534
35.320000 -0.001149 -1.948864
35.340000 -0.000304 -1.944411
35.360000 0.002865 -1.949033
35.380000 0.003148 -1.955712
35.400000 0.002779 -1.945672
35.420000 0.003034 -1.950349
35.440000 0.004040 -1.951553
35.460000 0.002921 -1.952365
35.480000 0.002718 -1.956566
35.500000 0.002784 -1.953346
35.520000 0.004079 -1.957126
35.540000 0.005893 -1.947688
35.560000 0.006557 -1.953444
35.580000 0.004682 -1.946288
35.600000 0.005396 -1.944467
35.620000 0.003704 -1.953836
35.640000 0.004319 -1.953486
35.660000 0.003530 -1.953514
35.680000 0.003738 -1.950671
35.700000 0.002590 -1.950391
35.720000 -0.000210 -1.953009
35.740000 -0.000449 -1.950237
35.760000 -0.000809 -1.948626
35.780000 -0.001749 -1.948668
35.800000 -0.001387 -1.949061
35.820000 -0.003121 -1.952141
35.840000 -0.003675 -1.945294
35.860000 -0.002697 -1.955040
35.880000 -0.002794 -1.952197
35.900000 -0.001405 -1.947940
35.920000 -0.001521 -1.946932
35.940000 0.000266 -1.945868
35.960000 -0.002648 -1.951875
35.980000 -0.003935 -1.959017
36.000000 -0.003911 -1.948150
36.020000 -0.005818 -1.952197
36.040000 -0.005519 -1.951231
36.060000 -0.006280 -1.948724
36.080000 -0.007094 -1.955152
36.100000 -0.006362 -1.956538
36.120000 -0.004685 -1.958443
36.140000 -0.003987 -1.953738
36.160000 -0.003847 -1.949565
36.180000 -0.004507 -1.952603
36.200000 -0.004226 -1.949845
36.220000 -0.004432 -1.946680
36.240000 -0.004596 -1.947086
36.260000 -0.005617 -1.951483
36.280000 -0.002908 -1.950237
36.300000 -0.002863 -1.954424
36.320000 -0.003960 -1.963162
36.340000 -0.003756 -1.945126
36.360000 -0.004099 -1.946330
36.380000 -0.004162 -1.949355
36.400000 -0.002560 -1.948556
36.420000 -0.002126 -1.950657
36.440000 -0.001425 -1.949159
36.460000 -0.002711 -1.947730
36.480000 -0.002166 -1.948710
36.500000 -0.003512 -1.937914
36.520000 -0.001770 -1.955138
36.540000 0.000193 -1.946008
36.560000 0.002203 -1.949327
36.580000 0.002870 -1.954634
36.600000 0.004651 -1.952757
36.620000 0.003080 -1.948304
36.640000 0.003230 -1.947156
36.660000 0.005114 -1.954060
36.680000 0.005903 -1.953738
36.700000 0.005180 -1.950237
36.720000 0.004086 -1.957519
36.740000 0.005006 -1.959745
36.760000 0.002658 -1.957967
36.780000 0.003771 -1.950881
36.800000 0.004339 -1.954746
36.820000 0.004326 -1.955950
36.840000 0.004341 -1.950489
36.860000 0.004787 -1.951903
36.880000 0.005523 -1.949691
36.900000 0.006089 -1.954200
36.920000 0.004817 -1.947604
36.940000 0.004308 -1.956888
36.960000 0.003456 -1.955908
36.980000 0.002891 -1.956188
37.000000 0.002101 -1.955180
37.020000 0.001508 -1.956636
37.040000 0.003737 -1.957112
37.060000 0.002733 -1.945014
37.080000 0.003008 -1.942703
37.100000 0.001168 -1.944481
37.120000 0.001652 -1.946792
37.140000 -0.000222 -1.950727
37.160000 -0.000285 -1.954676
37.180000 -0.000591 -1.951175
37.200000 -0.000233 -1.939244
37.220000 -0.000954 -1.949733
37.240000 -0.001109 -1.957561
37.260000 -0.000354 -1.947128
37.280000 0.001291 -1.952141
37.300000 0.002163 -1.950839
37.320000 0.003159 -1.947548
37.340000 0.001094 -1.957463
37.360000 -0.000129 -1.949733
37.380000 -0.001597 -1.947226
37.400000 -0.003460 -1.959311
37.420000 -0.005323 -1.946484
37.440000 -0.006381 -1.950769
37.460000 -0.006029 -1.951287
37.480000 -0.006246 -1.947002
37.500000 -0.008043 -1.953430
37.520000 -0.006904 -1.950111
37.540000 -0.004680 -1.957084
37.560000 -0.005095 -1.959059
37.580000 -0.005691 -1.955838
37.600000 -0.003705 -1.949873
37.620000 -0.002868 -1.949831
37.640000 -0.002965 -1.954340
37.660000 -0.002841 -1.952365
37.680000 -0.004320 -1.948710
37.700000 -0.005516 -1.953528
37.720000 -0.006600 -1.951903
37.740000 -0.006415 -1.955740
37.760000 -0.006174 -1.955208
37.780000 -0.006083 -1.952407
37.800000 -0.004366 -1.950391
37.820000 -0.004983 -1.946330
37.840000 -0.004919 -1.944803
37.860000 -0.005740 -1.948276
37.880000 -0.005039 -1.946764
37.900000 -0.005814 -1.953696
37.920000 -0.005339 -1.957463
37.940000 -0.004720 -1.956468
37.960000 -0.001306 -1.954788
37.980000 -0.001396 -1.951035
38.000000 -0.000297 -1.950363
38.020000 0.000857 -1.950741
38.040000 0.002284 -1.945532
38.060000 0.002207 -1.950811
38.080000 0.000059 -1.945980
38.100000 -0.000221 -1.947072
38.120000 -0.001093 -1.950223
38.140000 -0.001116 -1.953206
38.160000 -0.000856 -1.954732
38.180000 -0.000333 -1.952757
38.200000 -0.001048 -1.949495
38.220000 0.000043 -1.947884
38.240000 -0.001639 -1.952477
38.260000 -0.001071 -1.950111
38.280000 -0.000524 -1.946806
38.300000 -0.000018 -1.955838
38.320000 0.000430 -1.945252
38.340000 0.000802 -1.949607
38.360000 0.001080 -1.942969
38.380000 0.001247 -1.946316
38.400000 0.001283 -1.945798
38.420000 0.001172 -1.948192
38.440000 0.000894 -1.948500
38.460000 0.000433 -1.945854
38.480000 -0.000230 -1.954956
38.500000 -0.001113 -1.953107
38.520000 -0.002233 -1.948514
38.540000 -0.003609 -1.948206
38.560000 -0.005259 -1.946624
38.580000 -0.007200 -1.954928
38.600000 -0.009451 -1.952589
38.620000 -0.012030 -1.947282
38.640000 -0.014954 -1.937228