% Original filename: Decay Test Spring 0Deg0003.mat
0 Deg Decay Spring Run 4 2018-04-12
Time(s) Response(deg) LoadCell(N)
0.000000 -4.111519 -1.988004
0.020000 -4.113383 -1.988130
0.040000 -4.114900 -1.984559
0.060000 -4.116091 -1.984671
0.080000 -4.116982 -1.985707
0.100000 -4.117596 -1.988886
0.120000 -4.117957 -1.987374
0.140000 -4.118088 -1.981324
0.160000 -4.118014 -1.986758
0.180000 -4.117757 -1.977333
0.200000 -4.117343 -1.979616
0.220000 -4.116795 -1.986295
0.240000 -4.116136 -1.986071
0.260000 -4.115390 -1.985609
0.280000 -4.114581 -1.978412
0.300000 -4.113734 -1.980246
0.320000 -4.112871 -1.989698
0.340000 -4.112016 -1.984573
0.360000 -4.111194 -1.979994
0.380000 -4.110428 -1.984657
0.400000 -4.109742 -1.992527
0.420000 -4.108511 -1.980988
0.440000 -4.110687 -1.989054
0.460000 -4.111203 -1.989936
0.480000 -4.111089 -1.987318
0.500000 -4.113767 -1.982361
0.520000 -4.114467 -1.980442
0.540000 -4.114472 -1.982697
0.560000 -4.115668 -1.978538
0.580000 -4.118364 -1.981604
0.600000 -4.118150 -1.985973
0.620000 -4.116885 -1.986113
0.640000 -4.120549 -1.982164
0.660000 -4.122509 -1.979392
0.680000 -4.123600 -1.983663
0.700000 -4.125755 -1.988242
0.720000 -4.127176 -1.985469
0.740000 -4.127434 -1.977361
0.760000 -4.126535 -1.984923
0.780000 -4.125896 -1.979350
0.800000 -4.124893 -1.988424
0.820000 -4.125660 -1.990426
0.840000 -4.125220 -1.980596
0.860000 -4.126784 -1.983243
0.880000 -4.136856 -1.986211
0.900000 -4.144983 -1.981520
0.920000 -4.157717 -1.981940
0.940000 -4.168346 -1.986365
0.960000 -4.176309 -1.987402
0.980000 -4.183747 -1.975219
1.000000 -4.188650 -1.982781
1.020000 -4.184972 -1.984881
1.040000 -4.183013 -1.990903
1.060000 -4.179464 -1.985679
1.080000 -4.173504 -1.979588
1.100000 -4.165167 -1.979882
1.120000 -4.155945 -1.982725
1.140000 -4.140584 -1.990524
1.160000 -4.112954 -1.979644
1.180000 -4.076710 -1.985245
1.200000 -4.029383 -1.991421
1.220000 -3.971964 -1.983999
1.240000 -3.907305 -1.981044
1.260000 -3.832105 -1.971802
1.280000 -3.745073 -1.980120
1.300000 -3.647981 -1.981688
1.320000 -3.545121 -1.984867
1.340000 -3.432165 -1.991547
1.360000 -3.312559 -1.977809
1.380000 -3.175948 -1.983677
1.400000 -3.034117 -1.979630
1.420000 -2.881035 -1.984811
1.440000 -2.718712 -1.988368
1.460000 -2.551733 -1.985455
1.480000 -2.382537 -1.987906
1.500000 -2.213277 -1.983957
1.520000 -2.044268 -1.987752
1.540000 -1.870211 -1.985931
1.560000 -1.693101 -1.987220
1.580000 -1.519618 -1.986267
1.600000 -1.341897 -1.987612
1.620000 -1.174302 -1.986996
1.640000 -1.006228 -1.982417
1.660000 -0.846089 -1.985987
1.680000 -0.692739 -1.985609
1.700000 -0.538112 -1.981296
1.720000 -0.389214 -1.979084
1.740000 -0.240200 -1.981198
1.760000 -0.097881 -1.984713
1.780000 0.043160 -1.987108
1.800000 0.181451 -1.978258
1.820000 0.313331 -1.989278
1.840000 0.437887 -1.986520
1.860000 0.556869 -1.997988
1.880000 0.668173 -1.991589
1.900000 0.780068 -1.989852
1.920000 0.887881 -1.986337
1.940000 0.999628 -1.991911
1.960000 1.115298 -1.987220
1.980000 1.223415 -1.989516
2.000000 1.329038 -1.986295
2.020000 1.432480 -1.987206
2.040000 1.528773 -1.982865
2.060000 1.619630 -1.989754
2.080000 1.705041 -1.994613
2.100000 1.782989 -1.988886
2.120000 1.853750 -1.988396
2.140000 1.927214 -1.990314
2.160000 1.996134 -1.986576
2.180000 2.059280 -1.982753
2.200000 2.114355 -1.978636
2.220000 2.166062 -1.983187
2.240000 2.197943 -1.987038
2.260000 2.217736 -1.981912
2.280000 2.228779 -1.983817
2.300000 2.229282 -1.989124
2.320000 2.226363 -1.989530
2.340000 2.217519 -1.995692
2.360000 2.197936 -1.993885
2.380000 2.170808 -1.996420
2.400000 2.144284 -1.990118
2.420000 2.098619 -1.982445
2.440000 2.048815 -1.990062
2.460000 1.988955 -2.003254
2.480000 1.923362 -1.989348
2.500000 1.849177 -1.984797
2.520000 1.773545 -1.987094
2.540000 1.693177 -1.988102
2.560000 1.606784 -1.981618
2.580000 1.517825 -1.983901
2.600000 1.426641 -1.987626
2.620000 1.327747 -1.985119
2.640000 1.218611 -1.987276
2.660000 1.110143 -1.987360
2.680000 0.996903 -1.994796
2.700000 0.889122 -1.992275
2.720000 0.776468 -1.988522
2.740000 0.670862 -1.991211
2.760000 0.559869 -1.986001
2.780000 0.449744 -1.990482
2.800000 0.339703 -1.979266
2.820000 0.226631 -1.990118
2.840000 0.110775 -1.983537
2.860000 -0.004504 -1.985945
2.880000 -0.115403 -1.990482
2.900000 -0.226596 -1.990665
2.920000 -0.335408 -1.989894
2.940000 -0.438423 -1.985539
2.960000 -0.540931 -1.986239
2.980000 -0.642084 -1.982571
3.000000 -0.737397 -1.990314
3.020000 -0.836387 -1.989810
3.040000 -0.936124 -1.986141
3.060000 -1.026470 -1.997232
3.080000 -1.112542 -1.989628
3.100000 -1.195708 -1.987584
3.120000 -1.270811 -1.988872
3.140000 -1.343672 -1.990062
3.160000 -1.404115 -1.993717
3.180000 -1.458820 -1.984741
3.200000 -1.513728 -1.983733
3.220000 -1.567437 -1.978398
3.240000 -1.613923 -1.989278
3.260000 -1.653331 -1.980820
3.280000 -1.683860 -1.984027
3.300000 -1.715810 -1.977319
3.320000 -1.734507 -1.975807
3.340000 -1.752049 -1.985889
3.360000 -1.758093 -1.977333
3.380000 -1.762518 -1.988354
3.400000 -1.755147 -1.982431
3.420000 -1.749607 -1.985805
3.440000 -1.738478 -1.984279
3.460000 -1.710811 -1.988592
3.480000 -1.685528 -1.984433
3.500000 -1.651883 -1.978608
3.520000 -1.617252 -1.981688
3.540000 -1.567822 -1.990693
3.560000 -1.525720 -1.985875
3.580000 -1.471321 -1.986702
3.600000 -1.417146 -1.981968
3.620000 -1.363720 -1.980526
3.640000 -1.297581 -1.988648
3.660000 -1.235704 -1.984601
3.680000 -1.165815 -1.978412
3.700000 -1.100277 -1.988746
3.720000 -1.023247 -1.986814
3.740000 -0.947051 -1.983453
3.760000 -0.865731 -1.985945
3.780000 -0.784167 -1.988102
3.800000 -0.702615 -1.986309
3.820000 -0.622024 -1.992737
3.840000 -0.536137 -1.990945
3.860000 -0.453123 -1.985385
3.880000 -0.364207 -1.992387
3.900000 -0.278395 -1.993115
3.920000 -0.189376 -1.988816
3.940000 -0.104287 -1.984811
3.960000 -0.018155 -1.986001
3.980000 0.064907 -1.979490
4.000000 0.147666 -1.988466
4.020000 0.232941 -1.977025
4.040000 0.315320 -1.985217
4.060000 0.397084 -1.979406
4.080000 0.476871 -1.988844
4.100000 0.546378 -1.979014
4.120000 0.620398 -1.984909
4.140000 0.688117 -1.988844
4.160000 0.753166 -1.986295
4.180000 0.813101 -1.974729
4.200000 0.875291 -1.978496
4.220000 0.931595 -1.984797
4.240000 0.982015 -1.984517
4.260000 1.028323 -1.986141
4.280000 1.067135 -1.987878
4.300000 1.104658 -1.989586
4.320000 1.141216 -1.981576
4.340000 1.173630 -1.980008
4.360000 1.193845 -1.982473
4.380000 1.220630 -1.980946
4.400000 1.234017 -1.980414
4.420000 1.242669 -1.981702
4.440000 1.253436 -1.985399
4.460000 1.247269 -1.991337
4.480000 1.249084 -1.976367
4.500000 1.236856 -1.981422
4.520000 1.231173 -1.981576
4.540000 1.209988 -1.984223
4.560000 1.193268 -1.985693
4.580000 1.167765 -1.985721
4.600000 1.137495 -1.982781
4.620000 1.109475 -1.983831
4.640000 1.076625 -1.982669
4.660000 1.041426 -1.982347
4.680000 1.007093 -1.986548
4.700000 0.963993 -1.981618
4.720000 0.919801 -1.985469
4.740000 0.869744 -1.978061
4.760000 0.825143 -1.974785
4.780000 0.778897 -1.974939
4.800000 0.723230 -1.985091
4.820000 0.666051 -1.992457
4.840000 0.609805 -1.986940
4.860000 0.546355 -1.987332
4.880000 0.482810 -1.981408
4.900000 0.421327 -1.985399
4.920000 0.361755 -1.984013
4.940000 0.296865 -1.989880
4.960000 0.230068 -1.982501
4.980000 0.170335 -1.978412
5.000000 0.109477 -1.981240
5.020000 0.049492 -1.977207
5.040000 -0.012635 -1.988508
5.060000 -0.072596 -1.983565
5.080000 -0.132296 -1.977781
5.100000 -0.193947 -1.978019
5.120000 -0.255590 -1.982445
5.140000 -0.318296 -1.983243
5.160000 -0.375979 -1.976045
5.180000 -0.426911 -1.986996
5.200000 -0.480460 -1.974757
5.220000 -0.530882 -1.982375
5.240000 -0.579066 -1.984503
5.260000 -0.628596 -1.989278
5.280000 -0.672655 -1.988466
5.300000 -0.718852 -1.979742
5.320000 -0.756899 -1.988732
5.340000 -0.796554 -1.980848
5.360000 -0.823313 -1.984209
5.380000 -0.852624 -1.980834
5.400000 -0.877537 -1.982150
5.420000 -0.900182 -1.981618
5.440000 -0.920826 -1.976969
5.460000 -0.933354 -1.985931
5.480000 -0.947289 -1.986814
5.500000 -0.956494 -1.979364
5.520000 -0.960143 -1.987052
5.540000 -0.961712 -1.984825
5.560000 -0.957468 -1.977389
5.580000 -0.956449 -1.987542
5.600000 -0.951284 -1.980204
5.620000 -0.936269 -1.983635
5.640000 -0.923334 -1.982038
5.660000 -0.904826 -1.989054
5.680000 -0.878691 -1.986576
5.700000 -0.855995 -1.984097
5.720000 -0.831746 -1.988340
5.740000 -0.804938 -1.989460
5.760000 -0.777234 -1.983453
5.780000 -0.741776 -1.988508
5.800000 -0.704300 -1.988312
5.820000 -0.668686 -1.986870
5.840000 -0.634454 -1.984517
5.860000 -0.593200 -1.988662
5.880000 -0.552876 -1.983285
5.900000 -0.514043 -1.985091
5.920000 -0.472640 -1.988816
5.940000 -0.422107 -1.990903
5.960000 -0.369169 -1.979210
5.980000 -0.320581 -1.997456
6.000000 -0.276552 -1.990258
6.020000 -0.234656 -1.986520
6.040000 -0.187613 -1.986870
6.060000 -0.137146 -1.993003
6.080000 -0.090460 -1.987976
6.100000 -0.042924 -1.983369
6.120000 0.005891 -1.988284
6.140000 0.052424 -1.982389
6.160000 0.099004 -1.985763
6.180000 0.141137 -1.979280
6.200000 0.184116 -1.975597
6.220000 0.225999 -1.982529
6.240000 0.273123 -1.984517
6.260000 0.314293 -1.987206
6.280000 0.353376 -1.978454
6.300000 0.391690 -1.984895
6.320000 0.427462 -1.984167
6.340000 0.459421 -1.985049
6.360000 0.490415 -1.979602
6.380000 0.514513 -1.976829
6.400000 0.537253 -1.977207
6.420000 0.557341 -1.976241
6.440000 0.575112 -1.978033
6.460000 0.596451 -1.985329
6.480000 0.612838 -1.981562
6.500000 0.625342 -1.977809
6.520000 0.634354 -1.980428
6.540000 0.637521 -1.976801
6.560000 0.641376 -1.979084
6.580000 0.649905 -1.984433
6.600000 0.654588 -1.981940
6.620000 0.650347 -1.978244
6.640000 0.646088 -1.977865
6.660000 0.644908 -1.992821
6.680000 0.634704 -1.990566
6.700000 0.624231 -1.981800
6.720000 0.609702 -1.983075
6.740000 0.600107 -1.984349
6.760000 0.588298 -1.983033
6.780000 0.571126 -1.982024
6.800000 0.553759 -1.985077
6.820000 0.538449 -1.981828
6.840000 0.524710 -1.985357
6.860000 0.508089 -1.986996
6.880000 0.484325 -1.982823
6.900000 0.459835 -1.986562
6.920000 0.431938 -1.990146
6.940000 0.404423 -1.988172
6.960000 0.381337 -1.989866
6.980000 0.357145 -1.988270
7.000000 0.332355 -1.986407
7.020000 0.303560 -1.982753
7.040000 0.271893 -1.983915
7.060000 0.238174 -1.982767
7.080000 0.207232 -1.986057
7.100000 0.175845 -1.991589
7.120000 0.142401 -1.981016
7.140000 0.108382 -1.975849
7.160000 0.073992 -1.985413
7.180000 0.038198 -1.984993
7.200000 0.005421 -1.979952
7.220000 -0.023947 -1.979910
7.240000 -0.051828 -1.983621
7.260000 -0.082137 -1.978328
7.280000 -0.114206 -1.984419
7.300000 -0.146506 -1.981296
7.320000 -0.180174 -1.978902
7.340000 -0.206462 -1.983705
7.360000 -0.231175 -1.987570
7.380000 -0.257101 -1.984909
7.400000 -0.285372 -1.983663
7.420000 -0.313563 -1.975023
7.440000 -0.335190 -1.986968
7.460000 -0.352825 -1.988508
7.480000 -0.372430 -1.977389
7.500000 -0.390240 -1.978300
7.520000 -0.407396 -1.979350
7.540000 -0.413082 -1.979350
7.560000 -0.418146 -1.982921
7.580000 -0.427021 -1.980596
7.600000 -0.433024 -1.979854
7.620000 -0.439319 -1.980540
7.640000 -0.440274 -1.982291
7.660000 -0.443238 -1.981716
7.680000 -0.448798 -1.986660
7.700000 -0.453701 -1.988046
7.720000 -0.449955 -1.986295
7.740000 -0.441495 -1.984139
7.760000 -0.433695 -1.988130
7.780000 -0.426517 -1.985511
7.800000 -0.421562 -1.979966
7.820000 -0.417776 -1.983803
7.840000 -0.413024 -1.982403
7.860000 -0.398257 -1.986688
7.880000 -0.379755 -1.989852
7.900000 -0.362168 -1.982907
7.920000 -0.346466 -1.980624
7.940000 -0.333076 -1.988984
7.960000 -0.319092 -1.980176
7.980000 -0.303392 -1.980526
8.000000 -0.283322 -1.981464
8.020000 -0.260396 -1.986604
8.040000 -0.235945 -1.985161
8.060000 -0.215060 -1.987472
8.080000 -0.191924 -1.978706
8.100000 -0.169253 -1.987878
8.120000 -0.148724 -1.981142
8.140000 -0.127979 -1.984755
8.160000 -0.108011 -1.985945
8.180000 -0.086040 -1.976479
8.200000 -0.064237 -1.982669
8.220000 -0.040913 -1.982823
8.240000 -0.017063 -1.986506
8.260000 0.011054 -1.986127
8.280000 0.037910 -1.986029
8.300000 0.065258 -1.985777
8.320000 0.091635 -1.991281
8.340000 0.118916 -1.985511
8.360000 0.141160 -1.987696
8.380000 0.161742 -1.976997
8.400000 0.178857 -1.986043
8.420000 0.193992 -1.994123
8.440000 0.210189 -1.988046
8.460000 0.222083 -1.989334
8.480000 0.234150 -1.984951
8.500000 0.248699 -1.982220
8.520000 0.267497 -1.984741
8.540000 0.278964 -1.979434
8.560000 0.289889 -1.989208
8.580000 0.301363 -1.982809
8.600000 0.310115 -1.985217
8.620000 0.320397 -1.986702
8.640000 0.331738 -1.992667
8.660000 0.345151 -1.985147
8.680000 0.353424 -1.980092
8.700000 0.356694 -1.982865
8.720000 0.357288 -1.982445
8.740000 0.354269 -1.976927
8.760000 0.353528 -1.981380
8.780000 0.351256 -1.986099
8.800000 0.350940 -1.979140
8.820000 0.346587 -1.991491
8.840000 0.340047 -1.984433
8.860000 0.331631 -1.982767
8.880000 0.325303 -1.982683
8.900000 0.318960 -1.985427
8.920000 0.314167 -1.985651
8.940000 0.307683 -1.982066
8.960000 0.297233 -1.978426
8.980000 0.288066 -1.981324
9.000000 0.278035 -1.979028
9.020000 0.265268 -1.983005
9.040000 0.254149 -1.974435
9.060000 0.245156 -1.981310
9.080000 0.232200 -1.979196
9.100000 0.218491 -1.988200
9.120000 0.204638 -1.982487
9.140000 0.191912 -1.980134
9.160000 0.180110 -1.987920
9.180000 0.165013 -1.979966
9.200000 0.148355 -1.990973
9.220000 0.131551 -1.989810
9.240000 0.114838 -1.987836
9.260000 0.101172 -1.983313
9.280000 0.086233 -1.982893
9.300000 0.074346 -1.975821
9.320000 0.062431 -1.968987
9.340000 0.046871 -1.981212
9.360000 0.033729 -1.978580
9.380000 0.019295 -1.983733
9.400000 0.004724 -1.983733
9.420000 -0.009134 -1.983761
9.440000 -0.023087 -1.990580
9.460000 -0.036551 -1.978804
9.480000 -0.051041 -1.981114
9.500000 -0.065482 -1.988466
9.520000 -0.081422 -1.988410
9.540000 -0.096930 -1.982094
9.560000 -0.111208 -1.977627
9.580000 -0.122636 -1.981366
9.600000 -0.129935 -1.980498
9.620000 -0.136758 -1.983061
9.640000 -0.141853 -1.987766
9.660000 -0.146237 -1.986071
9.680000 -0.149418 -1.985329
9.700000 -0.152010 -1.981926
9.720000 -0.158510 -1.980778
9.740000 -0.167574 -1.982837
9.760000 -0.175779 -1.983915
9.780000 -0.180412 -1.983803
9.800000 -0.187063 -1.982935
9.820000 -0.192093 -1.987542
9.840000 -0.191611 -1.985189
9.860000 -0.190016 -1.982921
9.880000 -0.189480 -1.985021
9.900000 -0.187111 -1.977515
9.920000 -0.182980 -1.989670
9.940000 -0.179187 -1.992121
9.960000 -0.169732 -1.989418
9.980000 -0.165551 -1.985903
10.000000 -0.158456 -1.982487
10.020000 -0.151237 -1.984727
10.040000 -0.141411 -1.981436
10.060000 -0.130389 -1.989334
10.080000 -0.121580 -1.978566
10.100000 -0.110164 -1.981646
10.120000 -0.102685 -1.985077
10.140000 -0.094540 -1.980316
10.160000 -0.086337 -1.980484
10.180000 -0.078417 -1.983285
10.200000 -0.067470 -1.986267
10.220000 -0.058374 -1.984769
10.240000 -0.049708 -1.975723
10.260000 -0.040380 -1.981982
10.280000 -0.031935 -1.973440
10.300000 -0.022401 -1.986604
10.320000 -0.013748 -1.981912
10.340000 -0.003879 -1.981954
10.360000 0.005820 -1.987430
10.380000 0.017279 -1.979588
10.400000 0.027376 -1.984461
10.420000 0.037390 -1.971116
10.440000 0.047222 -1.975723
10.460000 0.058893 -1.984363
10.480000 0.071808 -1.982781
10.500000 0.081568 -1.973902
10.520000 0.090080 -1.982725
10.540000 0.099037 -1.988690
10.560000 0.107378 -1.980750
10.580000 0.115518 -1.981646
10.600000 0.122641 -1.982697
10.620000 0.131181 -1.979364
10.640000 0.139397 -1.990062
10.660000 0.148617 -1.978986
10.680000 0.156794 -1.977081
10.700000 0.167935 -1.982066
10.720000 0.179043 -1.982655
10.740000 0.189372 -1.982024
10.760000 0.201354 -1.980554
10.780000 0.208328 -1.985567
10.800000 0.214768 -1.973734
10.820000 0.220973 -1.979462
10.840000 0.226909 -1.981534
10.860000 0.229310 -1.979658
10.880000 0.229457 -1.984027
10.900000 0.229137 -1.983593
10.920000 0.227375 -1.980680
10.940000 0.223987 -1.980484
10.960000 0.219003 -1.975667
10.980000 0.212802 -1.977529
11.000000 0.206844 -1.981744
11.020000 0.198644 -1.981240
11.040000 0.189413 -1.974127
11.060000 0.179243 -1.980806
11.080000 0.166800 -1.979322
11.100000 0.154275 -1.981324
11.120000 0.140383 -1.983215
11.140000 0.126378 -1.977627
11.160000 0.114325 -1.986478
11.180000 0.101066 -1.986926
11.200000 0.089898 -1.986758
11.220000 0.079695 -1.989894
11.240000 0.070035 -1.988844
11.260000 0.061878 -1.994305
11.280000 0.052950 -1.990272
11.300000 0.044610 -1.983887
11.320000 0.037480 -1.975947
11.340000 0.030752 -1.978019
11.360000 0.024185 -1.979070
11.380000 0.019005 -1.981548
11.400000 0.014463 -1.978552
11.420000 0.009668 -1.981422
11.440000 0.004301 -1.982683
11.460000 0.002072 -1.981422
11.480000 -0.000787 -1.987934
11.500000 -0.001495 -1.982206
11.520000 -0.004782 -1.988116
11.540000 -0.005760 -1.990875
11.560000 -0.005964 -1.990314
11.580000 -0.006593 -1.989950
11.600000 -0.006141 -1.981730
11.620000 -0.004151 -1.985623
11.640000 -0.003334 -1.989628
11.660000 -0.003097 -1.988270
11.680000 -0.002044 -1.986982
11.700000 0.000395 -1.991911
11.720000 0.003158 -1.991239
11.740000 0.003225 -1.991729
11.760000 0.004352 -1.978650
11.780000 0.003897 -1.982683
11.800000 0.004402 -1.988830
11.820000 0.003710 -1.982949
11.840000 0.001138 -1.993633
11.860000 -0.000469 -1.993381
11.880000 -0.002536 -1.994557
11.900000 -0.001613 -1.990370
11.920000 -0.002856 -1.991351
11.940000 -0.003224 -1.988900
11.960000 -0.000749 -1.988760
11.980000 0.001187 -1.992653
12.000000 0.002989 -1.993535
12.020000 0.004774 -1.977417
12.040000 0.005560 -1.987206
12.060000 0.008530 -1.976843
12.080000 0.012565 -1.990959
12.100000 0.014532 -1.996658
12.120000 0.016484 -1.990258
12.140000 0.016803 -1.987640
12.160000 0.019224 -1.982206
12.180000 0.020482 -1.980400
12.200000 0.021112 -1.982487
12.220000 0.020202 -1.991967
12.240000 0.021018 -1.990623
12.260000 0.021489 -1.987150
12.280000 0.020100 -1.980456
12.300000 0.017948 -1.979588
12.320000 0.015110 -1.983677
12.340000 0.014553 -1.983383
12.360000 0.013271 -1.985693
12.380000 0.009565 -1.996364
12.400000 0.008662 -1.984937
12.420000 0.004936 -1.989852
12.440000 0.000297 -1.985805
12.460000 -0.004264 -1.987066
12.480000 -0.005975 -1.989026
12.500000 -0.009289 -1.986856
12.520000 -0.012468 -1.984797
12.540000 -0.016977 -1.980778
12.560000 -0.021530 -1.989082
12.580000 -0.023865 -1.985777
12.600000 -0.026671 -1.989320
12.620000 -0.029706 -1.984545
12.640000 -0.032112 -1.980176
12.660000 -0.034588 -1.982319
12.680000 -0.036873 -1.990090
12.700000 -0.039279 -1.986800
12.720000 -0.042507 -1.996616
12.740000 -0.043317 -1.982655
12.760000 -0.042124 -1.987682
12.780000 -0.043222 -1.984517
12.800000 -0.044293 -1.984097
12.820000 -0.043908 -1.984475
12.840000 -0.044441 -1.987122
12.860000 -0.043469 -1.992695
12.880000 -0.044067 -1.991421
12.900000 -0.044433 -1.985595
12.920000 -0.043159 -1.987584
12.940000 -0.042665 -1.983971
12.960000 -0.040767 -1.982333
12.980000 -0.040866 -1.985721
13.000000 -0.039429 -1.981506
13.020000 -0.039300 -1.986113
13.040000 -0.038149 -1.985371
13.060000 -0.037209 -1.993661
13.080000 -0.037682 -1.994627
13.100000 -0.036210 -1.996056
13.120000 -0.035019 -1.983481
13.140000 -0.033258 -1.989250
13.160000 -0.030992 -1.993171
13.180000 -0.030661 -1.988284
13.200000 -0.029372 -1.977263
13.220000 -0.027905 -1.988186
13.240000 -0.025354 -1.982319
13.260000 -0.022881 -1.987500
13.280000 -0.021200 -1.983243
13.300000 -0.019537 -1.988662
13.320000 -0.017001 -1.983383
13.340000 -0.014825 -1.975905
13.360000 -0.012216 -1.987514
13.380000 -0.009049 -1.981772
13.400000 -0.007401 -1.982234
13.420000 -0.006125 -1.988018
13.440000 -0.004205 -1.984755
13.460000 -0.003996 -1.983495
13.480000 -0.004447 -1.985567
13.500000 -0.002949 -1.988088
13.520000 -0.000877 -1.984769
13.540000 0.000936 -1.986646
13.560000 0.002673 -1.988592
13.580000 0.002776 -1.976171
13.600000 0.002494 -1.982711
13.620000 0.001158 -1.985497
13.640000 -0.000024 -1.980316
13.660000 -0.001100 -1.983173
13.680000 -0.002127 -1.979784
13.700000 -0.001539 -1.981366
13.720000 -0.002176 -1.980932
13.740000 -0.002399 -1.978902
13.760000 -0.003439 -1.981366
13.780000 -0.005566 -1.984027
13.800000 -0.006822 -1.983817
13.820000 -0.008626 -1.978552
13.840000 -0.009152 -1.983047
13.860000 -0.010966 -1.982795
13.880000 -0.014162 -1.987262
13.900000 -0.014050 -1.991673
13.920000 -0.015818 -1.987192
13.940000 -0.015863 -1.978762
13.960000 -0.017908 -1.983495
13.980000 -0.020506 -1.986772
14.000000 -0.022104 -1.989404
14.020000 -0.022892 -1.979574
14.040000 -0.024569 -1.976101
14.060000 -0.025676 -1.982515
14.080000 -0.028822 -1.992415
14.100000 -0.031160 -1.992205
14.120000 -0.031830 -1.980428
14.140000 -0.035095 -1.979966
14.160000 -0.036732 -1.981142
14.180000 -0.038506 -1.990314
14.200000 -0.041799 -1.983369
14.220000 -0.043320 -1.986379
14.240000 -0.045634 -1.987416
14.260000 -0.046155 -1.982711
14.280000 -0.045746 -1.985049
14.300000 -0.045088 -1.983593
14.320000 -0.044426 -1.991785
14.340000 -0.044856 -1.990847
14.360000 -0.045156 -1.991953
14.380000 -0.045199 -1.984279
14.400000 -0.045473 -1.978748
14.420000 -0.044068 -1.983425
14.440000 -0.043351 -1.981604
14.460000 -0.042019 -1.985805
14.480000 -0.040522 -1.988270
14.500000 -0.037924 -1.981982
14.520000 -0.035822 -1.976241
14.540000 -0.033803 -1.982094
14.560000 -0.033132 -1.985147
14.580000 -0.031419 -1.974603
14.600000 -0.028675 -1.980694
14.620000 -0.026830 -1.977935
14.640000 -0.024991 -1.980470
14.660000 -0.024351 -1.981184
14.680000 -0.023418 -1.982795
14.700000 -0.022660 -1.978188
14.720000 -0.022181 -1.979014
14.740000 -0.021563 -1.978734
14.760000 -0.021081 -1.990370
14.780000 -0.020743 -1.984867
14.800000 -0.020555 -1.981142
14.820000 -0.020525 -1.984615
14.840000 -0.020660 -1.979644
14.860000 -0.020968 -1.980960
14.880000 -0.021455 -1.982431
14.900000 -0.022129 -1.985371
14.920000 -0.022997 -1.987990
14.940000 -0.024067 -1.989432
14.960000 -0.025345 -1.978272
14.980000 -0.026839 -1.986267
15.000000 -0.028557 -1.987192
15.020000 -0.030505 -1.980512
15.040000 -0.032691 -1.981254
15.060000 -0.035122 -1.987136
15.080000 -0.037806 -1.992051
15.100000 -0.040749 -1.988396
15.120000 -0.043959 -1.988396