% Original filename: Decay Test 0Deg No StringPot0010.mat
0 Deg Decay NoStringPot Run 1 2018-04-12
Time(s) Response(deg) LoadCell(N)
0.000000 -12.271118 -1.942871
0.020000 -12.268865 -1.940785
0.040000 -12.266878 -1.946148
0.060000 -12.265142 -1.939468
0.080000 -12.263645 -1.944845
0.100000 -12.262375 -1.943851
0.120000 -12.261319 -1.945294
0.140000 -12.260465 -1.945518
0.160000 -12.259799 -1.947072
0.180000 -12.259309 -1.937746
0.200000 -12.258983 -1.944481
0.220000 -12.258807 -1.936878
0.240000 -12.258770 -1.936780
0.260000 -12.258858 -1.947968
0.280000 -12.259059 -1.946918
0.300000 -12.259360 -1.946624
0.320000 -12.259749 -1.944089
0.340000 -12.260213 -1.947310
0.360000 -12.260739 -1.949271
0.380000 -12.261315 -1.945700
0.400000 -12.261928 -1.946358
0.420000 -12.263511 -1.948430
0.440000 -12.262561 -1.944019
0.460000 -12.262604 -1.942829
0.480000 -12.262119 -1.944341
0.500000 -12.263384 -1.946484
0.520000 -12.263793 -1.943963
0.540000 -12.264561 -1.944313
0.560000 -12.265361 -1.945910
0.580000 -12.265416 -1.946932
0.600000 -12.266005 -1.946974
0.620000 -12.265221 -1.948612
0.640000 -12.265464 -1.948304
0.660000 -12.265612 -1.946680
0.680000 -12.267418 -1.944481
0.700000 -12.266831 -1.947268
0.720000 -12.265527 -1.941569
0.740000 -12.265732 -1.948738
0.760000 -12.262235 -1.943753
0.780000 -12.260722 -1.948514
0.800000 -12.260255 -1.949677
0.820000 -12.261125 -1.950069
0.840000 -12.260342 -1.941877
0.860000 -12.257968 -1.939650
0.880000 -12.257432 -1.951987
0.900000 -12.256075 -1.944047
0.920000 -12.257706 -1.946288
0.940000 -12.257467 -1.941653
0.960000 -12.255196 -1.943151
0.980000 -12.255148 -1.947240
1.000000 -12.254986 -1.948024
1.020000 -12.255423 -1.945406
1.040000 -12.256560 -1.941051
1.060000 -12.257300 -1.942213
1.080000 -12.257362 -1.950139
1.100000 -12.256980 -1.944383
1.120000 -12.258072 -1.943977
1.140000 -12.259352 -1.939734
1.160000 -12.259947 -1.943403
1.180000 -12.259720 -1.943557
1.200000 -12.260509 -1.949173
1.220000 -12.260094 -1.943529
1.240000 -12.260268 -1.951819
1.260000 -12.262536 -1.946260
1.280000 -12.262316 -1.955124
1.300000 -12.263027 -1.947464
1.320000 -12.265019 -1.946442
1.340000 -12.265973 -1.939440
1.360000 -12.265800 -1.944271
1.380000 -12.266360 -1.946456
1.400000 -12.266670 -1.938082
1.420000 -12.266933 -1.943459
1.440000 -12.268017 -1.950335
1.460000 -12.267480 -1.945756
1.480000 -12.266717 -1.939818
1.500000 -12.266081 -1.942731
1.520000 -12.264228 -1.948976
1.540000 -12.264641 -1.945070
1.560000 -12.261477 -1.948024
1.580000 -12.261129 -1.937648
1.600000 -12.260598 -1.946722
1.620000 -12.260628 -1.945742
1.640000 -12.259949 -1.941793
1.660000 -12.259623 -1.949719
1.680000 -12.259211 -1.947590
1.700000 -12.258324 -1.951847
1.720000 -12.258691 -1.933405
1.740000 -12.256601 -1.954900
1.760000 -12.257376 -1.948010
1.780000 -12.261278 -1.946456
1.800000 -12.267799 -1.949257
1.820000 -12.277175 -1.943095
1.840000 -12.287631 -1.948780
1.860000 -12.297924 -1.942885
1.880000 -12.309120 -1.941345
1.900000 -12.319713 -1.939454
1.920000 -12.332030 -1.945182
1.940000 -12.342860 -1.945238
1.960000 -12.354167 -1.949229
1.980000 -12.367308 -1.947478
2.000000 -12.378466 -1.951511
2.020000 -12.390058 -1.951861
2.040000 -12.402677 -1.952771
2.060000 -12.414501 -1.952939
2.080000 -12.431452 -1.949971
2.100000 -12.453364 -1.946750
2.120000 -12.467912 -1.942437
2.140000 -12.482884 -1.936822
2.160000 -12.495666 -1.944355
2.180000 -12.506137 -1.944944
2.200000 -12.514586 -1.945378
2.220000 -12.514997 -1.950965
2.240000 -12.518687 -1.948906
2.260000 -12.515336 -1.943445
2.280000 -12.512639 -1.947758
2.300000 -12.505722 -1.947352
2.320000 -12.494130 -1.941933
2.340000 -12.481729 -1.940855
2.360000 -12.463345 -1.947226
2.380000 -12.438304 -1.948206
2.400000 -12.411970 -1.943221
2.420000 -12.374717 -1.942745
2.440000 -12.333994 -1.945322
2.460000 -12.294721 -1.946624
2.480000 -12.248950 -1.944411
2.500000 -12.200655 -1.946008
2.520000 -12.148240 -1.948598
2.540000 -12.088496 -1.944467
2.560000 -12.029217 -1.944705
2.580000 -11.964826 -1.944383
2.600000 -11.894486 -1.941023
2.620000 -11.818157 -1.944635
2.640000 -11.734180 -1.943473
2.660000 -11.644948 -1.952365
2.680000 -11.555593 -1.947072
2.700000 -11.463773 -1.940630
2.720000 -11.366250 -1.939608
2.740000 -11.264745 -1.946554
2.760000 -11.161198 -1.946106
2.780000 -11.053923 -1.940014
2.800000 -10.943745 -1.940658
2.820000 -10.835134 -1.938152
2.840000 -10.727032 -1.939706
2.860000 -10.617156 -1.946344
2.880000 -10.509724 -1.941051
2.900000 -10.393279 -1.940322
2.920000 -10.264592 -1.939090
2.940000 -10.140795 -1.941821
2.960000 -10.010612 -1.945014
2.980000 -9.878395 -1.943935
3.000000 -9.743663 -1.944565
3.020000 -9.602457 -1.944579
3.040000 -9.467597 -1.941863
3.060000 -9.322496 -1.947814
3.080000 -9.177540 -1.950489
3.100000 -9.028219 -1.938516
3.120000 -8.873393 -1.938376
3.140000 -8.714698 -1.937984
3.160000 -8.551892 -1.943011
3.180000 -8.383846 -1.938390
3.200000 -8.217085 -1.945532
3.220000 -8.044451 -1.948234
3.240000 -7.873657 -1.946806
3.260000 -7.699177 -1.956398
3.280000 -7.515234 -1.948948
3.300000 -7.329941 -1.946932
3.320000 -7.137385 -1.945294
3.340000 -6.945896 -1.940855
3.360000 -6.749332 -1.947786
3.380000 -6.546696 -1.947072
3.400000 -6.338852 -1.944257
3.420000 -6.132667 -1.945154
3.440000 -5.922752 -1.945532
3.460000 -5.716771 -1.946092
3.480000 -5.505980 -1.940925
3.500000 -5.293085 -1.944986
3.520000 -5.073855 -1.949747
3.540000 -4.856220 -1.938474
3.560000 -4.632828 -1.943025
3.580000 -4.410391 -1.937606
3.600000 -4.188259 -1.946554
3.620000 -3.965710 -1.940504
3.640000 -3.743904 -1.941275
3.660000 -3.516676 -1.940897
3.680000 -3.291343 -1.940154
3.700000 -3.058602 -1.937634
3.720000 -2.825734 -1.951105
3.740000 -2.596275 -1.943977
3.760000 -2.362413 -1.948346
3.780000 -2.135883 -1.943389
3.800000 -1.900216 -1.945532
3.820000 -1.667826 -1.936892
3.840000 -1.436002 -1.944355
3.860000 -1.202500 -1.938068
3.880000 -0.972051 -1.941219
3.900000 -0.736960 -1.946022
3.920000 -0.504796 -1.944187
3.940000 -0.275796 -1.944089
3.960000 -0.046110 -1.935519
3.980000 0.185431 -1.943767
4.000000 0.416003 -1.948626
4.020000 0.642614 -1.949271
4.040000 0.867734 -1.945350
4.060000 1.096060 -1.937998
4.080000 1.320640 -1.948836
4.100000 1.544470 -1.945378
4.120000 1.767446 -1.947282
4.140000 1.986708 -1.946904
4.160000 2.212868 -1.938950
4.180000 2.433329 -1.936163
4.200000 2.651683 -1.936135
4.220000 2.867455 -1.945126
4.240000 3.080233 -1.941933
4.260000 3.292038 -1.947954
4.280000 3.504946 -1.944047
4.300000 3.714246 -1.948752
4.320000 3.924667 -1.946092
4.340000 4.132767 -1.943291
4.360000 4.338152 -1.944845
4.380000 4.537946 -1.947394
4.400000 4.737222 -1.948570
4.420000 4.934553 -1.948710
4.440000 5.130352 -1.945546
4.460000 5.323351 -1.943151
4.480000 5.513187 -1.943165
4.500000 5.701428 -1.941905
4.520000 5.883893 -1.947394
4.540000 6.064405 -1.945518
4.560000 6.244192 -1.941135
4.580000 6.421291 -1.944341
4.600000 6.597687 -1.945350
4.620000 6.762287 -1.953794
4.640000 6.927183 -1.951399
4.660000 7.086589 -1.938516
4.680000 7.242797 -1.938544
4.700000 7.402497 -1.943081
4.720000 7.550018 -1.946134
4.740000 7.697248 -1.945182
4.760000 7.844806 -1.944453
4.780000 7.984426 -1.943935
4.800000 8.119056 -1.944201
4.820000 8.247202 -1.944607
4.840000 8.371911 -1.942143
4.860000 8.499982 -1.947576
4.880000 8.619065 -1.952071
4.900000 8.733107 -1.943767
4.920000 8.845145 -1.950433
4.940000 8.954479 -1.946344
4.960000 9.060244 -1.943025
4.980000 9.159470 -1.945434
5.000000 9.256870 -1.949004
5.020000 9.349969 -1.941191
5.040000 9.436452 -1.946750
5.060000 9.522592 -1.946834
5.080000 9.600072 -1.939944
5.100000 9.675115 -1.949061
5.120000 9.744705 -1.944845
5.140000 9.808348 -1.948388
5.160000 9.866753 -1.948108
5.180000 9.927180 -1.943277
5.200000 9.980883 -1.952743
5.220000 10.028950 -1.947002
5.240000 10.073280 -1.947296
5.260000 10.112554 -1.948402
5.280000 10.151463 -1.953892
5.300000 10.182205 -1.946106
5.320000 10.209140 -1.947520
5.340000 10.234624 -1.943599
5.360000 10.253778 -1.937788
5.380000 10.266116 -1.944271
5.400000 10.268198 -1.945714
5.420000 10.271614 -1.938922
5.440000 10.273235 -1.939482
5.460000 10.270820 -1.948346
5.480000 10.262484 -1.950405
5.500000 10.250472 -1.952337
5.520000 10.232872 -1.939328
5.540000 10.209526 -1.949859
5.560000 10.182444 -1.941457
5.580000 10.149453 -1.942381
5.600000 10.113068 -1.943319
5.620000 10.072214 -1.948038
5.640000 10.030537 -1.961678
5.660000 9.986872 -1.945126
5.680000 9.934845 -1.954130
5.700000 9.878966 -1.939398
5.720000 9.821127 -1.940084
5.740000 9.755275 -1.946470
5.760000 9.689016 -1.948206
5.780000 9.619714 -1.946498
5.800000 9.544935 -1.943053
5.820000 9.466157 -1.943963
5.840000 9.384926 -1.951049
5.860000 9.298740 -1.945672
5.880000 9.205249 -1.951819
5.900000 9.109223 -1.945518
5.920000 9.010873 -1.944733
5.940000 8.913420 -1.949915
5.960000 8.813288 -1.946736
5.980000 8.712766 -1.939622
6.000000 8.604904 -1.940883
6.020000 8.496287 -1.944944
6.040000 8.386549 -1.940560
6.060000 8.272110 -1.942661
6.080000 8.151511 -1.945770
6.100000 8.029642 -1.946134
6.120000 7.907146 -1.943375
6.140000 7.782582 -1.948738
6.160000 7.652157 -1.944986
6.180000 7.523825 -1.941863
6.200000 7.391720 -1.947842
6.220000 7.258065 -1.946750
6.240000 7.120017 -1.956678
6.260000 6.977679 -1.954886
6.280000 6.833914 -1.951455
6.300000 6.688291 -1.951805
6.320000 6.539908 -1.943487
6.340000 6.386627 -1.944243
6.360000 6.230886 -1.947758
6.380000 6.074018 -1.950489
6.400000 5.916298 -1.949957
6.420000 5.759583 -1.945980
6.440000 5.596259 -1.939020
6.460000 5.429874 -1.957547
6.480000 5.261180 -1.948514
6.500000 5.089362 -1.950629
6.520000 4.917116 -1.945756
6.540000 4.743127 -1.949355
6.560000 4.569354 -1.948626
6.580000 4.388066 -1.953051
6.600000 4.208669 -1.944691
6.620000 4.029203 -1.944019
6.640000 3.848248 -1.939370
6.660000 3.664345 -1.949831
6.680000 3.473130 -1.947352
6.700000 3.285786 -1.945924
6.720000 3.104599 -1.949635
6.740000 2.921187 -1.952407
6.760000 2.735819 -1.948374
6.780000 2.554125 -1.953065
6.800000 2.366065 -1.938264
6.820000 2.178376 -1.945952
6.840000 1.989215 -1.938124
6.860000 1.800724 -1.957168
6.880000 1.612344 -1.950083
6.900000 1.430150 -1.950615
6.920000 1.244209 -1.949313
6.940000 1.057248 -1.945112
6.960000 0.871003 -1.943347
6.980000 0.685668 -1.948920
7.000000 0.495171 -1.943207
7.020000 0.307913 -1.952981
7.040000 0.122129 -1.947870
7.060000 -0.061345 -1.950671
7.080000 -0.244297 -1.957308
7.100000 -0.428522 -1.952953
7.120000 -0.610667 -1.950965
7.140000 -0.789924 -1.950027
7.160000 -0.971047 -1.949103
7.180000 -1.146823 -1.954396
7.200000 -1.321212 -1.952589
7.220000 -1.496693 -1.955320
7.240000 -1.674862 -1.951749
7.260000 -1.844898 -1.956916
7.280000 -2.017496 -1.949915
7.300000 -2.192540 -1.943725
7.320000 -2.365694 -1.950895
7.340000 -2.538606 -1.943683
7.360000 -2.707441 -1.945910
7.380000 -2.874622 -1.951035
7.400000 -3.039158 -1.947338
7.420000 -3.204066 -1.946638
7.440000 -3.368854 -1.953163
7.460000 -3.529661 -1.943977
7.480000 -3.691287 -1.945210
7.500000 -3.846813 -1.943333
7.520000 -3.997452 -1.951483
7.540000 -4.153239 -1.947478
7.560000 -4.303923 -1.940014
7.580000 -4.453589 -1.943557
7.600000 -4.605704 -1.945868
7.620000 -4.750056 -1.944145
7.640000 -4.895341 -1.954074
7.660000 -5.034372 -1.946946
7.680000 -5.174809 -1.947702
7.700000 -5.308779 -1.943809
7.720000 -5.445839 -1.942017
7.740000 -5.576726 -1.948206
7.760000 -5.706581 -1.945448
7.780000 -5.835633 -1.944831
7.800000 -5.958931 -1.948052
7.820000 -6.079674 -1.946204
7.840000 -6.197095 -1.945714
7.860000 -6.308709 -1.941387
7.880000 -6.418528 -1.949145
7.900000 -6.526842 -1.946036
7.920000 -6.629132 -1.953248
7.940000 -6.726757 -1.951119
7.960000 -6.820236 -1.952631
7.980000 -6.911946 -1.948150
8.000000 -7.001735 -1.953065
8.020000 -7.086690 -1.939930
8.040000 -7.170097 -1.946372
8.060000 -7.249253 -1.953710
8.080000 -7.328988 -1.947940
8.100000 -7.403165 -1.952379
8.120000 -7.472692 -1.945896
8.140000 -7.538310 -1.951497
8.160000 -7.600252 -1.948752
8.180000 -7.661953 -1.953346
8.200000 -7.721184 -1.954102
8.220000 -7.774946 -1.946064
8.240000 -7.824924 -1.939650
8.260000 -7.869383 -1.943501
8.280000 -7.912281 -1.946764
8.300000 -7.953931 -1.943039
8.320000 -7.991467 -1.949775
8.340000 -8.028960 -1.945168
8.360000 -8.055177 -1.944537
8.380000 -8.081341 -1.949383
8.400000 -8.106253 -1.957098
8.420000 -8.124784 -1.945714
8.440000 -8.141392 -1.951049
8.460000 -8.152949 -1.950755
8.480000 -8.159786 -1.942227
8.500000 -8.161406 -1.944747
8.520000 -8.168068 -1.948780
8.540000 -8.163860 -1.939818
8.560000 -8.160430 -1.944453
8.580000 -8.150864 -1.950741
8.600000 -8.138160 -1.940743
8.620000 -8.120657 -1.950979
8.640000 -8.098079 -1.955698
8.660000 -8.071982 -1.951945
8.680000 -8.047568 -1.953009
8.700000 -8.015877 -1.953318
8.720000 -7.979363 -1.951077
8.740000 -7.940236 -1.951329
8.760000 -7.896634 -1.950811
8.780000 -7.858302 -1.949579
8.800000 -7.810285 -1.946498
8.820000 -7.758818 -1.949901
8.840000 -7.707585 -1.945126
8.860000 -7.652487 -1.950069
8.880000 -7.592080 -1.950265
8.900000 -7.530434 -1.946988
8.920000 -7.469839 -1.952925
8.940000 -7.401857 -1.957911
8.960000 -7.329487 -1.953528
8.980000 -7.256690 -1.942801
9.000000 -7.182977 -1.946050
9.020000 -7.104569 -1.949565
9.040000 -7.020705 -1.951007
9.060000 -6.935888 -1.953290
9.080000 -6.848889 -1.950027
9.100000 -6.765657 -1.947114
9.120000 -6.677450 -1.949369
9.140000 -6.583065 -1.952799
9.160000 -6.485116 -1.952155
9.180000 -6.387011 -1.955264
9.200000 -6.282991 -1.950853
9.220000 -6.174080 -1.945728
9.240000 -6.065160 -1.948318
9.260000 -5.953817 -1.949453
9.280000 -5.842873 -1.950447
9.300000 -5.733750 -1.948276
9.320000 -5.618912 -1.946764
9.340000 -5.496664 -1.954046
9.360000 -5.375519 -1.952435
9.380000 -5.249421 -1.949509
9.400000 -5.124369 -1.949061
9.420000 -4.996924 -1.949873
9.440000 -4.869850 -1.951287
9.460000 -4.737553 -1.947268
9.480000 -4.603701 -1.953584
9.500000 -4.466096 -1.962378
9.520000 -4.329779 -1.947688
9.540000 -4.191049 -1.959101
9.560000 -4.052068 -1.943361
9.580000 -3.916110 -1.942017
9.600000 -3.773521 -1.951721
9.620000 -3.634404 -1.952981
9.640000 -3.495482 -1.946862
9.660000 -3.353388 -1.956748
9.680000 -3.209757 -1.953654
9.700000 -3.066628 -1.948332
9.720000 -2.920066 -1.955474
9.740000 -2.773923 -1.951735
9.760000 -2.628240 -1.952911
9.780000 -2.482688 -1.955110
9.800000 -2.336043 -1.957673
9.820000 -2.186772 -1.959143
9.840000 -2.036853 -1.955026
9.860000 -1.888954 -1.951245
9.880000 -1.738139 -1.947926
9.900000 -1.588630 -1.957449
9.920000 -1.434128 -1.955334
9.940000 -1.279386 -1.959843
9.960000 -1.124545 -1.961187
9.980000 -0.969401 -1.963736
10.000000 -0.816173 -1.957322
10.020000 -0.667641 -1.963316
10.040000 -0.519176 -1.950601
10.060000 -0.369306 -1.948528
10.080000 -0.219796 -1.952057
10.100000 -0.062212 -1.957659
10.120000 0.095734 -1.954606
10.140000 0.250005 -1.951791
10.160000 0.401626 -1.958163
10.180000 0.554104 -1.954270
10.200000 0.707453 -1.954606
10.220000 0.859594 -1.956482
10.240000 1.014689 -1.953248
10.260000 1.163980 -1.955264
10.280000 1.307978 -1.956132
10.300000 1.453877 -1.950419
10.320000 1.597143 -1.944958
10.340000 1.738504 -1.958135
10.360000 1.877250 -1.957182
10.380000 2.017654 -1.951203
10.400000 2.154891 -1.946666
10.420000 2.290242 -1.949173
10.440000 2.424533 -1.950041
10.460000 2.558400 -1.943641
10.480000 2.693786 -1.952505
10.500000 2.820996 -1.955068
10.520000 2.953029 -1.953780
10.540000 3.081124 -1.957645
10.560000 3.207981 -1.957603
10.580000 3.335674 -1.950363
10.600000 3.459551 -1.959073
10.620000 3.583814 -1.953556
10.640000 3.709138 -1.952001
10.660000 3.831846 -1.951875
10.680000 3.952627 -1.954354
10.700000 4.067266 -1.955082
10.720000 4.182159 -1.957463
10.740000 4.293964 -1.957196
10.760000 4.402872 -1.950125
10.780000 4.507601 -1.947660
10.800000 4.612156 -1.952603
10.820000 4.716928 -1.947940
10.840000 4.823446 -1.958891
10.860000 4.927116 -1.946022
10.880000 5.029854 -1.954886
10.900000 5.130704 -1.955208
10.920000 5.223358 -1.951329
10.940000 5.308966 -1.953794
10.960000 5.399818 -1.954242
10.980000 5.490573 -1.953934
11.000000 5.573824 -1.956258
11.020000 5.650840 -1.957126
11.040000 5.726105 -1.959549
11.060000 5.796191 -1.946386
11.080000 5.869544 -1.950993
11.100000 5.943592 -1.945476
11.120000 6.010934 -1.955068
11.140000 6.077157 -1.944355
11.160000 6.138536 -1.947338
11.180000 6.200401 -1.957210
11.200000 6.253879 -1.952589
11.220000 6.307185 -1.945280
11.240000 6.359154 -1.947982
11.260000 6.405338 -1.945252
11.280000 6.449709 -1.946946
11.300000 6.485116 -1.945896
11.320000 6.523828 -1.947758
11.340000 6.556484 -1.944243
11.360000 6.587127 -1.941471
11.380000 6.619202 -1.945994
11.400000 6.645290 -1.949467
11.420000 6.666895 -1.950377
11.440000 6.687340 -1.943095
11.460000 6.704984 -1.948108
11.480000 6.720807 -1.949999
11.500000 6.731220 -1.951315
11.520000 6.741605 -1.952477
11.540000 6.750467 -1.951539
11.560000 6.754382 -1.949845
11.580000 6.755343 -1.945462
11.600000 6.756326 -1.955642
11.620000 6.752693 -1.948402
11.640000 6.746345 -1.948304
11.660000 6.737483 -1.949481
11.680000 6.725034 -1.946806
11.700000 6.712104 -1.949523
11.720000 6.690570 -1.955040
11.740000 6.669264 -1.952365
11.760000 6.648114 -1.951343
11.780000 6.619475 -1.948430
11.800000 6.589861 -1.951707
11.820000 6.559593 -1.957575
11.840000 6.525961 -1.956762
11.860000 6.494360 -1.948906
11.880000 6.456180 -1.948584
11.900000 6.417420 -1.957967
11.920000 6.371612 -1.947086
11.940000 6.323348 -1.945406
11.960000 6.272491 -1.947674
11.980000 6.217238 -1.949523
12.000000 6.160371 -1.959815
12.020000 6.101014 -1.951399
12.040000 6.036948 -1.951329
12.060000 5.968783 -1.949761
12.080000 5.898219 -1.946330
12.100000 5.826073 -1.954508
12.120000 5.754679 -1.953065
12.140000 5.682111 -1.944033
12.160000 5.606007 -1.951133
12.180000 5.528178 -1.958247
12.200000 5.446870 -1.948346
12.220000 5.362673 -1.949047
12.240000 5.284544 -1.950139
12.260000 5.201609 -1.944845
12.280000 5.112713 -1.943921
12.300000 5.021851 -1.959059
12.320000 4.930431 -1.949663
12.340000 4.838730 -1.955558
12.360000 4.742020 -1.953248
12.380000 4.641744 -1.954312
12.400000 4.539954 -1.953023
12.420000 4.440174 -1.956342
12.440000 4.340006 -1.957000
12.460000 4.237924 -1.956426
12.480000 4.133184 -1.953234
12.500000 4.027906 -1.954466
12.520000 3.918876 -1.958205
12.540000 3.811672 -1.955138
12.560000 3.701913 -1.951777
12.580000 3.590730 -1.955992
12.600000 3.475092 -1.948724
12.620000 3.360291 -1.956748
12.640000 3.244000 -1.955152
12.660000 3.132495 -1.949607
12.680000 3.011516 -1.945658
12.700000 2.893282 -1.954326
12.720000 2.773672 -1.953696
12.740000 2.655955 -1.946246
12.760000 2.537185 -1.951273
12.780000 2.410500 -1.948598
12.800000 2.286718 -1.948850
12.820000 2.161402 -1.950237
12.840000 2.036037 -1.955152
12.860000 1.913481 -1.950111
12.880000 1.789632 -1.943599
12.900000 1.663450 -1.941135
12.920000 1.541623 -1.942647
12.940000 1.414603 -1.947100
12.960000 1.288093 -1.942745
12.980000 1.159810 -1.951791
13.000000 1.034725 -1.949439
13.020000 0.909725 -1.951077
13.040000 0.784729 -1.960991
13.060000 0.653393 -1.952995
13.080000 0.524930 -1.956132
13.100000 0.399107 -1.949257
13.120000 0.269316 -1.954788
13.140000 0.141187 -1.959815
13.160000 0.014808 -1.952155
13.180000 -0.112287 -1.953976
13.200000 -0.240412 -1.949131
13.220000 -0.361852 -1.955236
13.240000 -0.487792 -1.949579
13.260000 -0.613684 -1.954326
13.280000 -0.738189 -1.954396
13.300000 -0.862528 -1.956286
13.320000 -0.986797 -1.952729
13.340000 -1.109165 -1.957701
13.360000 -1.233519 -1.957435
13.380000 -1.359832 -1.957799
13.400000 -1.477578 -1.951987
13.420000 -1.594452 -1.944495
13.440000 -1.710359 -1.952043
13.460000 -1.827176 -1.951343
13.480000 -1.941580 -1.955544
13.500000 -2.056072 -1.950293
13.520000 -2.163209 -1.955152
13.540000 -2.278332 -1.950671
13.560000 -2.392206 -1.953192
13.580000 -2.506229 -1.949271
13.600000 -2.614597 -1.947114
13.620000 -2.722000 -1.947786
13.640000 -2.827683 -1.949705
13.660000 -2.930697 -1.950573
13.680000 -3.035483 -1.956342
13.700000 -3.140658 -1.953878
13.720000 -3.237644 -1.950461
13.740000 -3.339597 -1.943991
13.760000 -3.439840 -1.944383
13.780000 -3.533334 -1.942451
13.800000 -3.620672 -1.948710
13.820000 -3.714096 -1.944930
13.840000 -3.803755 -1.952953
13.860000 -3.888709 -1.948150
13.880000 -3.972298 -1.951595
13.900000 -4.059046 -1.943977
13.920000 -4.142749 -1.944411
13.940000 -4.220578 -1.952393
13.960000 -4.296874 -1.942885
13.980000 -4.377635 -1.948500
14.000000 -4.454680 -1.949985
14.020000 -4.525338 -1.953360
14.040000 -4.595229 -1.953178
14.060000 -4.659655 -1.951329
14.080000 -4.721130 -1.951525
14.100000 -4.785004 -1.954130
14.120000 -4.846738 -1.953766
14.140000 -4.904009 -1.955278
14.160000 -4.963320 -1.954158
14.180000 -5.017059 -1.948472
14.200000 -5.066316 -1.951119
14.220000 -5.117458 -1.946190
14.240000 -5.161540 -1.939300
14.260000 -5.207380 -1.945462
14.280000 -5.247208 -1.952827
14.300000 -5.290173 -1.949495
14.320000 -5.325278 -1.935029
14.340000 -5.362287 -1.949439
14.360000 -5.392061 -1.947394
14.380000 -5.421398 -1.951203
14.400000 -5.449432 -1.948878
14.420000 -5.477165 -1.946694
14.440000 -5.500963 -1.953009
14.460000 -5.523387 -1.951665
14.480000 -5.542790 -1.952421
14.500000 -5.556416 -1.948990
14.520000 -5.568310 -1.941373
14.540000 -5.581912 -1.946302
14.560000 -5.592657 -1.950195
14.580000 -5.592085 -1.948108
14.600000 -5.593285 -1.947786
14.620000 -5.598412 -1.942815
14.640000 -5.599077 -1.950013
14.660000 -5.595547 -1.947744
14.680000 -5.594099 -1.949439
14.700000 -5.591097 -1.946876
14.720000 -5.578153 -1.943151
14.740000 -5.566057 -1.948738
14.760000 -5.552773 -1.949257
14.780000 -5.535097 -1.953710
14.800000 -5.513783 -1.945448
14.820000 -5.488323 -1.949299
14.840000 -5.460946 -1.949131
14.860000 -5.434093 -1.955474
14.880000 -5.406582 -1.951987
14.900000 -5.376816 -1.958359
14.920000 -5.342707 -1.947646
14.940000 -5.307202 -1.958177
14.960000 -5.269005 -1.952869
14.980000 -5.229988 -1.948472
15.000000 -5.188144 -1.945826
15.020000 -5.142778 -1.951469
15.040000 -5.093019 -1.946624
15.060000 -5.043081 -1.944705
15.080000 -4.988064 -1.944467
15.100000 -4.929487 -1.945140
15.120000 -4.871350 -1.951791
15.140000 -4.809318 -1.951805
15.160000 -4.751034 -1.945168
15.180000 -4.690591 -1.953808
15.200000 -4.632618 -1.952127
15.220000 -4.568526 -1.950125
15.240000 -4.501157 -1.950139
15.260000 -4.431938 -1.950265
15.280000 -4.361135 -1.944271
15.300000 -4.290958 -1.953290
15.320000 -4.218512 -1.957463
15.340000 -4.143409 -1.955222
15.360000 -4.066518 -1.952351
15.380000 -3.989587 -1.948682
15.400000 -3.910946 -1.946358
15.420000 -3.833759 -1.951133
15.440000 -3.749932 -1.947674
15.460000 -3.661686 -1.951329
15.480000 -3.580524 -1.956832
15.500000 -3.493539 -1.945000
15.520000 -3.400590 -1.949635
15.540000 -3.314765 -1.947128
15.560000 -3.224907 -1.948542
15.580000 -3.131826 -1.954032
15.600000 -3.040292 -1.949621
15.620000 -2.946152 -1.946610
15.640000 -2.852333 -1.950531
15.660000 -2.760071 -1.954662
15.680000 -2.662990 -1.955166
15.700000 -2.564965 -1.949873
15.720000 -2.471082 -1.951805
15.740000 -2.372761 -1.951497
15.760000 -2.270039 -1.952589
15.780000 -2.169822 -1.955740
15.800000 -2.068756 -1.948094
15.820000 -1.963074 -1.943151
15.840000 -1.856168 -1.945336
15.860000 -1.753628 -1.946792
15.880000 -1.646651 -1.952435
15.900000 -1.541346 -1.944425
15.920000 -1.440703 -1.949033
15.940000 -1.331615 -1.947716
15.960000 -1.229522 -1.939608
15.980000 -1.127316 -1.949075
16.000000 -1.020804 -1.947856
16.020000 -0.908824 -1.953023
16.040000 -0.805398 -1.936668
16.060000 -0.696192 -1.950125
16.080000 -0.587089 -1.943179
16.100000 -0.483984 -1.945966
16.120000 -0.371981 -1.941219
16.140000 -0.267306 -1.944579
16.160000 -0.161688 -1.947310
16.180000 -0.054235 -1.952715
16.200000 0.057245 -1.950923
16.220000 0.167072 -1.947072
16.240000 0.271966 -1.949985
16.260000 0.378508 -1.950783
16.280000 0.483442 -1.950027
16.300000 0.590115 -1.951875
16.320000 0.697313 -1.944005
16.340000 0.797195 -1.951497
16.360000 0.903485 -1.953906
16.380000 1.009349 -1.948626
16.400000 1.111911 -1.945070
16.420000 1.211367 -1.952183
16.440000 1.314638 -1.952589
16.460000 1.414060 -1.947604
16.480000 1.518387 -1.947688
16.500000 1.616421 -1.945476
16.520000 1.714570 -1.946778
16.540000 1.815505 -1.947520
16.560000 1.915853 -1.944397
16.580000 2.008238 -1.947478
16.600000 2.104038 -1.941443
16.620000 2.200250 -1.945504
16.640000 2.293418 -1.946526
16.660000 2.383839 -1.953920
16.680000 2.475907 -1.949915
16.700000 2.564729 -1.950349
16.720000 2.651918 -1.946162
16.740000 2.737603 -1.946442
16.760000 2.819752 -1.956762
16.780000 2.904572 -1.955516
16.800000 2.989402 -1.950517
16.820000 3.067590 -1.944173
16.840000 3.147398 -1.951819
16.860000 3.225122 -1.950447
16.880000 3.299483 -1.948108
16.900000 3.370404 -1.952603
16.920000 3.448224 -1.943893
16.940000 3.515640 -1.950755
16.960000 3.588046 -1.950041
16.980000 3.657251 -1.950209
17.000000 3.726196 -1.947828
17.020000 3.792848 -1.945280
17.040000 3.850759 -1.947744
17.060000 3.916185 -1.945882
17.080000 3.976463 -1.947422
17.100000 4.034299 -1.943375
17.120000 4.093653 -1.954242
17.140000 4.143908 -1.942227
17.160000 4.197747 -1.946316
17.180000 4.247533 -1.948192
17.200000 4.297274 -1.942353
17.220000 4.343269 -1.949915
17.240000 4.390886 -1.944201
17.260000 4.433884 -1.949957
17.280000 4.476067 -1.951133
17.300000 4.513484 -1.939986
17.320000 4.553734 -1.954368
17.340000 4.591765 -1.952211
17.360000 4.628081 -1.954508
17.380000 4.657533 -1.951567
17.400000 4.690319 -1.944341
17.420000 4.720909 -1.950811
17.440000 4.749423 -1.951357
17.460000 4.773389 -1.956342
17.480000 4.796015 -1.949103
17.500000 4.814633 -1.951245
17.520000 4.831639 -1.951861
17.540000 4.844012 -1.949649
17.560000 4.858290 -1.957995
17.580000 4.866564 -1.949803
17.600000 4.870873 -1.951931
17.620000 4.879090 -1.954788
17.640000 4.883262 -1.950531
17.660000 4.881520 -1.943053
17.680000 4.880485 -1.939076
17.700000 4.878672 -1.947954
17.720000 4.874140 -1.952015
17.740000 4.863529 -1.943067
17.760000 4.855966 -1.955558
17.780000 4.844720 -1.950755
17.800000 4.830510 -1.942689
17.820000 4.816137 -1.943431
17.840000 4.799319 -1.952197
17.860000 4.779071 -1.949033
17.880000 4.756079 -1.950489
17.900000 4.735284 -1.944930
17.920000 4.707992 -1.943389
17.940000 4.680417 -1.955236
17.960000 4.650341 -1.950083
17.980000 4.617281 -1.945280
18.000000 4.586852 -1.947268
18.020000 4.549567 -1.949733
18.040000 4.514005 -1.946946
18.060000 4.471532 -1.949873
18.080000 4.432290 -1.952449
18.100000 4.388496 -1.949663
18.120000 4.348053 -1.950279
18.140000 4.301281 -1.957533
18.160000 4.253911 -1.954074
18.180000 4.203051 -1.952029
18.200000 4.155291 -1.946512
18.220000 4.105233 -1.948542
18.240000 4.052369 -1.947394
18.260000 3.995344 -1.943305
18.280000 3.940904 -1.950335
18.300000 3.878555 -1.944551
18.320000 3.824245 -1.946512
18.340000 3.760186 -1.945434
18.360000 3.697955 -1.947198
18.380000 3.633551 -1.947758
18.400000 3.570487 -1.949201
18.420000 3.505068 -1.954004
18.440000 3.438335 -1.959045
18.460000 3.370380 -1.958751
18.480000 3.300864 -1.955306
18.500000 3.231582 -1.955516
18.520000 3.154731 -1.952813
18.540000 3.083664 -1.952169
18.560000 3.008310 -1.948850
18.580000 2.931594 -1.950391
18.600000 2.854305 -1.952673
18.620000 2.775642 -1.953023
18.640000 2.697503 -1.945350
18.660000 2.615873 -1.945616
18.680000 2.537073 -1.945056
18.700000 2.455939 -1.942731
18.720000 2.366333 -1.949019
18.740000 2.282322 -1.950643
18.760000 2.190445 -1.956468
18.780000 2.103396 -1.948304
18.800000 2.015672 -1.942731
18.820000 1.924933 -1.951287
18.840000 1.835891 -1.950209
18.860000 1.739875 -1.954578
18.880000 1.655294 -1.941877
18.900000 1.562253 -1.946862
18.920000 1.471578 -1.951875
18.940000 1.379657 -1.947016
18.960000 1.286067 -1.945938
18.980000 1.193580 -1.957939
19.000000 1.101814 -1.953752
19.020000 1.011464 -1.951203
19.040000 0.917183 -1.940925
19.060000 0.826251 -1.948206
19.080000 0.735161 -1.947982
19.100000 0.640187 -1.944159
19.120000 0.551332 -1.954802
19.140000 0.451025 -1.946750
19.160000 0.361952 -1.942829
19.180000 0.267701 -1.946274
19.200000 0.177091 -1.944117
19.220000 0.081349 -1.948682
19.240000 -0.006992 -1.948430
19.260000 -0.102311 -1.937256
19.280000 -0.193129 -1.949173
19.300000 -0.288616 -1.943165
19.320000 -0.379832 -1.943557
19.340000 -0.472519 -1.947716
19.360000 -0.568839 -1.947716
19.380000 -0.660362 -1.948402
19.400000 -0.747435 -1.949033
19.420000 -0.838631 -1.947044
19.440000 -0.924107 -1.951147
19.460000 -1.016966 -1.947282
19.480000 -1.104204 -1.954256
19.500000 -1.190839 -1.944187
19.520000 -1.276686 -1.948780
19.540000 -1.360066 -1.948598
19.560000 -1.446054 -1.945140
19.580000 -1.524181 -1.947884
19.600000 -1.607317 -1.945154
19.620000 -1.688087 -1.950811
19.640000 -1.766621 -1.954452
19.660000 -1.848262 -1.955404
19.680000 -1.920375 -1.942227
19.700000 -1.998971 -1.940056
19.720000 -2.078240 -1.944845
19.740000 -2.153894 -1.946918
19.760000 -2.229804 -1.945630
19.780000 -2.298656 -1.942353
19.800000 -2.372725 -1.940140
19.820000 -2.439903 -1.936401
19.840000 -2.507719 -1.944033
19.860000 -2.573504 -1.944117
19.880000 -2.644992 -1.941009
19.900000 -2.710948 -1.947660
19.920000 -2.775534 -1.946218
19.940000 -2.838787 -1.946288
19.960000 -2.899126 -1.943445
19.980000 -2.963274 -1.943599
20.000000 -3.021508 -1.948514
20.020000 -3.080475 -1.950797
20.040000 -3.133192 -1.947898
20.060000 -3.190972 -1.949523
20.080000 -3.245678 -1.948906
20.100000 -3.302335 -1.950531
20.120000 -3.353974 -1.946540
20.140000 -3.408153 -1.945994
20.160000 -3.454359 -1.952757
20.180000 -3.498914 -1.955726
20.200000 -3.540257 -1.953051
20.220000 -3.582804 -1.947730
20.240000 -3.621077 -1.950923
20.260000 -3.660002 -1.953780
20.280000 -3.693972 -1.939930
20.300000 -3.729481 -1.948990
20.320000 -3.764998 -1.944271
20.340000 -3.798228 -1.944159
20.360000 -3.830457 -1.944299
20.380000 -3.860268 -1.949089
20.400000 -3.892794 -1.942773
20.420000 -3.922461 -1.944635
20.440000 -3.950185 -1.942199
20.460000 -3.978743 -1.953934
20.480000 -3.999881 -1.945336
20.500000 -4.022941 -1.944649
20.520000 -4.043406 -1.948024
20.540000 -4.054929 -1.939412
20.560000 -4.066449 -1.942647
20.580000 -4.080662 -1.942003
20.600000 -4.094331 -1.953514
20.620000 -4.100832 -1.947268
20.640000 -4.108714 -1.946974
20.660000 -4.110378 -1.954494
20.680000 -4.112522 -1.950321
20.700000 -4.113259 -1.946904
20.720000 -4.113019 -1.950055
20.740000 -4.109252 -1.947618
20.760000 -4.104076 -1.947282
20.780000 -4.095721 -1.950167
20.800000 -4.086797 -1.948962
20.820000 -4.076196 -1.947660
20.840000 -4.061721 -1.953023
20.860000 -4.048253 -1.944845
20.880000 -4.036228 -1.948850
20.900000 -4.014804 -1.951343
20.920000 -3.993627 -1.947940
20.940000 -3.972561 -1.953948
20.960000 -3.944009 -1.948332
20.980000 -3.916140 -1.952155
21.000000 -3.891443 -1.959941
21.020000 -3.861670 -1.943347
21.040000 -3.832379 -1.949915
21.060000 -3.803278 -1.948150
21.080000 -3.770993 -1.953472
21.100000 -3.738026 -1.949663
21.120000 -3.703945 -1.945868
21.140000 -3.668168 -1.948430
21.160000 -3.635251 -1.953037
21.180000 -3.598337 -1.952953
21.200000 -3.560402 -1.948612
21.220000 -3.518550 -1.951707
21.240000 -3.476179 -1.947548
21.260000 -3.430431 -1.944117
21.280000 -3.381016 -1.939202
21.300000 -3.332438 -1.944803
21.320000 -3.280190 -1.950489
21.340000 -3.228945 -1.952519
21.360000 -3.176373 -1.943697
21.380000 -3.124354 -1.947604
21.400000 -3.065403 -1.944747
21.420000 -3.009018 -1.943361
21.440000 -2.949038 -1.943599
21.460000 -2.889519 -1.946540
21.480000 -2.834856 -1.937466
21.500000 -2.777565 -1.939090
21.520000 -2.717546 -1.947968
21.540000 -2.655637 -1.944986
21.560000 -2.593293 -1.946386
21.580000 -2.531152 -1.946218
21.600000 -2.469326 -1.949789
21.620000 -2.403940 -1.952393
21.640000 -2.339617 -1.952771
21.660000 -2.272470 -1.955138
21.680000 -2.207064 -1.948276
21.700000 -2.134182 -1.943613
21.720000 -2.066745 -1.944944
21.740000 -1.994280 -1.943921
21.760000 -1.922737 -1.939608
21.780000 -1.850191 -1.944509
21.800000 -1.777695 -1.938278
21.820000 -1.700837 -1.945210
21.840000 -1.626304 -1.944831
21.860000 -1.550539 -1.936766
21.880000 -1.472138 -1.940476
21.900000 -1.398776 -1.942101
21.920000 -1.319639 -1.947408
21.940000 -1.244737 -1.951315
21.960000 -1.164565 -1.949579
21.980000 -1.084648 -1.945798
22.000000 -1.002776 -1.946862
22.020000 -0.921760 -1.938194
22.040000 -0.842266 -1.948780
22.060000 -0.760504 -1.944509
22.080000 -0.680628 -1.947324
22.100000 -0.601077 -1.951021
22.120000 -0.522028 -1.940112
22.140000 -0.443472 -1.948038
22.160000 -0.365028 -1.940532
22.180000 -0.283847 -1.944930
22.200000 -0.207369 -1.943683
22.220000 -0.128022 -1.944061
22.240000 -0.048025 -1.948752
22.260000 0.029399 -1.945140
22.280000 0.106290 -1.945658
22.300000 0.186722 -1.945196
22.320000 0.264666 -1.946176
22.340000 0.344444 -1.949089
22.360000 0.420816 -1.946526
22.380000 0.497211 -1.940476
22.400000 0.574401 -1.946988
22.420000 0.652634 -1.945448
22.440000 0.728974 -1.943627
22.460000 0.813183 -1.946568
22.480000 0.883854 -1.952309
22.500000 0.965879 -1.945420
22.520000 1.042642 -1.952645
22.540000 1.114741 -1.943613
22.560000 1.190172 -1.946414
22.580000 1.264632 -1.944621
22.600000 1.337343 -1.948332
22.620000 1.409455 -1.947674
22.640000 1.480017 -1.947842
22.660000 1.550630 -1.951413
22.680000 1.621513 -1.942647
22.700000 1.690658 -1.948290
22.720000 1.760935 -1.945224
22.740000 1.828864 -1.948234
22.760000 1.899829 -1.948150
22.780000 1.964690 -1.948290
22.800000 2.026980 -1.957322
22.820000 2.089330 -1.946764
22.840000 2.152372 -1.952169
22.860000 2.212816 -1.941583
22.880000 2.268316 -1.940785
22.900000 2.327914 -1.948752
22.920000 2.385549 -1.951329
22.940000 2.444410 -1.951889
22.960000 2.499583 -1.948780
22.980000 2.556839 -1.940406
23.000000 2.610669 -1.945504
23.020000 2.669666 -1.943557
23.040000 2.721123 -1.943109
23.060000 2.772974 -1.946834
23.080000 2.820028 -1.947296
23.100000 2.870194 -1.940883
23.120000 2.916990 -1.947394
23.140000 2.963270 -1.944075
23.160000 3.006307 -1.943459
23.180000 3.051713 -1.952085
23.200000 3.095125 -1.952141
23.220000 3.134863 -1.942549
23.240000 3.171829 -1.952407
23.260000 3.208396 -1.949789
23.280000 3.240748 -1.950251
23.300000 3.278696 -1.945924
23.320000 3.308108 -1.942857
23.340000 3.339183 -1.943403
23.360000 3.373556 -1.944789
23.380000 3.400873 -1.941443
23.400000 3.429748 -1.949915
23.420000 3.455837 -1.944761
23.440000 3.481050 -1.946806
23.460000 3.507702 -1.948556
23.480000 3.532795 -1.948416
23.500000 3.555317 -1.945798
23.520000 3.578480 -1.944019
23.540000 3.600545 -1.942899
23.560000 3.618688 -1.953374
23.580000 3.635219 -1.944986
23.600000 3.647504 -1.949019
23.620000 3.660553 -1.942073
23.640000 3.670580 -1.941583
23.660000 3.678442 -1.949929
23.680000 3.687229 -1.942073
23.700000 3.697462 -1.950139
23.720000 3.700338 -1.950279
23.740000 3.700493 -1.941205
23.760000 3.701330 -1.951805
23.780000 3.702917 -1.953037
23.800000 3.703033 -1.948752
23.820000 3.698090 -1.946288
23.840000 3.687209 -1.939734
23.860000 3.676182 -1.952659
23.880000 3.663236 -1.950517
23.900000 3.649249 -1.946330
23.920000 3.634561 -1.951077
23.940000 3.615821 -1.940406
23.960000 3.596654 -1.946008
23.980000 3.573415 -1.947030
24.000000 3.550142 -1.946232
24.020000 3.526302 -1.948094
24.040000 3.501613 -1.942829
24.060000 3.474463 -1.948640
24.080000 3.447498 -1.954998
24.100000 3.420421 -1.952463
24.120000 3.388721 -1.946778
24.140000 3.359712 -1.954340
24.160000 3.327521 -1.947674
24.180000 3.291280 -1.950727
24.200000 3.258301 -1.938012
24.220000 3.222946 -1.946400
24.240000 3.186656 -1.950699
24.260000 3.152514 -1.948584
24.280000 3.112142 -1.948024
24.300000 3.075054 -1.945420
24.320000 3.036295 -1.943585
24.340000 2.993581 -1.950741
24.360000 2.948833 -1.948598
24.380000 2.905973 -1.945630
24.400000 2.859075 -1.941261
24.420000 2.814278 -1.947660
24.440000 2.770760 -1.944159
24.460000 2.725461 -1.943039
24.480000 2.677026 -1.939944
24.500000 2.626117 -1.949033
24.520000 2.574629 -1.952225
24.540000 2.520687 -1.951343
24.560000 2.473036 -1.942283
24.580000 2.415202 -1.945812
24.600000 2.360253 -1.951609
24.620000 2.300156 -1.947352
24.640000 2.240510 -1.946176
24.660000 2.182742 -1.942829
24.680000 2.121604 -1.946890
24.700000 2.060862 -1.944537
24.720000 2.000001 -1.942045
24.740000 1.941267 -1.947170
24.760000 1.877251 -1.945798
24.780000 1.814398 -1.950391
24.800000 1.752797 -1.957799
24.820000 1.689370 -1.951133
24.840000 1.625172 -1.947394
24.860000 1.557708 -1.948654
24.880000 1.494986 -1.947744
24.900000 1.428026 -1.947464
24.920000 1.360220 -1.947100
24.940000 1.291253 -1.957771
24.960000 1.224212 -1.939776
24.980000 1.151357 -1.949327
25.000000 1.086458 -1.947072
25.020000 1.015190 -1.945364
25.040000 0.945761 -1.952967
25.060000 0.877346 -1.942605
25.080000 0.807150 -1.950685
25.100000 0.742758 -1.944789
25.120000 0.670773 -1.947562
25.140000 0.603034 -1.947002
25.160000 0.537042 -1.948598
25.180000 0.468685 -1.948668
25.200000 0.403166 -1.950209
25.220000 0.334205 -1.950055
25.240000 0.264930 -1.953037
25.260000 0.192936 -1.955180
25.280000 0.121958 -1.953374
25.300000 0.057074 -1.953780
25.320000 -0.014931 -1.953808
25.340000 -0.084536 -1.950335
25.360000 -0.151339 -1.957210
25.380000 -0.226275 -1.946792
25.400000 -0.291320 -1.948752
25.420000 -0.364617 -1.950335
25.440000 -0.432245 -1.949537
25.460000 -0.499512 -1.944916
25.480000 -0.568765 -1.958751
25.500000 -0.637794 -1.957673
25.520000 -0.704372 -1.949579
25.540000 -0.771572 -1.956692
25.560000 -0.841625 -1.958303
25.580000 -0.905548 -1.960445
25.600000 -0.973975 -1.951889
25.620000 -1.039599 -1.951609
25.640000 -1.102606 -1.951231
25.660000 -1.168723 -1.957224
25.680000 -1.232628 -1.954676
25.700000 -1.296559 -1.944187
25.720000 -1.358833 -1.948794
25.740000 -1.424271 -1.945770
25.760000 -1.482493 -1.947268
25.780000 -1.545001 -1.950867
25.800000 -1.603528 -1.952491
25.820000 -1.663857 -1.948836
25.840000 -1.719284 -1.945868
25.860000 -1.771467 -1.944019
25.880000 -1.825197 -1.945476
25.900000 -1.879480 -1.949201
25.920000 -1.932308 -1.952911
25.940000 -1.978199 -1.956804
25.960000 -2.026428 -1.949901
25.980000 -2.077754 -1.954242
26.000000 -2.124464 -1.953906
26.020000 -2.177838 -1.949019
26.040000 -2.224805 -1.952757
26.060000 -2.270911 -1.949453
26.080000 -2.312890 -1.955124
26.100000 -2.354690 -1.948122
26.120000 -2.399448 -1.950797
26.140000 -2.440762 -1.947800
26.160000 -2.485006 -1.947100
26.180000 -2.525743 -1.947072
26.200000 -2.562105 -1.949173
26.220000 -2.602481 -1.945560
26.240000 -2.635988 -1.950601
26.260000 -2.670161 -1.946204
26.280000 -2.704647 -1.952449
26.300000 -2.734866 -1.948906
26.320000 -2.765590 -1.947100
26.340000 -2.797989 -1.951805
26.360000 -2.827807 -1.953290
26.380000 -2.856252 -1.948276
26.400000 -2.884496 -1.947548
26.420000 -2.908884 -1.951581
26.440000 -2.932391 -1.948304
26.460000 -2.955521 -1.953542
26.480000 -2.977352 -1.949943
26.500000 -2.998368 -1.948262
26.520000 -3.022345 -1.948318
26.540000 -3.041993 -1.950769
26.560000 -3.058456 -1.951007
26.580000 -3.073215 -1.952869
26.600000 -3.088077 -1.945532
26.620000 -3.097538 -1.943081
26.640000 -3.104610 -1.945490
26.660000 -3.113028 -1.943221
26.680000 -3.120480 -1.948738
26.700000 -3.124454 -1.956328
26.720000 -3.127087 -1.956174
26.740000 -3.131049 -1.947884
26.760000 -3.133361 -1.953458
26.780000 -3.134221 -1.955614
26.800000 -3.133011 -1.954858
26.820000 -3.130305 -1.950545
26.840000 -3.125627 -1.951371
26.860000 -3.120515 -1.949187
26.880000 -3.116236 -1.952617
26.900000 -3.109199 -1.949355
26.920000 -3.100003 -1.951623
26.940000 -3.092579 -1.949467
26.960000 -3.081140 -1.948332
26.980000 -3.064501 -1.948626
27.000000 -3.048569 -1.942773
27.020000 -3.033042 -1.953388
27.040000 -3.011557 -1.952757
27.060000 -2.990166 -1.951441
27.080000 -2.969196 -1.952183
27.100000 -2.951293 -1.952043
27.120000 -2.929200 -1.949635
27.140000 -2.904912 -1.949705
27.160000 -2.884024 -1.945392
27.180000 -2.858958 -1.944271
27.200000 -2.828142 -1.953472
27.220000 -2.799993 -1.952155
27.240000 -2.771049 -1.954802
27.260000 -2.738803 -1.957897
27.280000 -2.708832 -1.948878
27.300000 -2.678858 -1.954074
27.320000 -2.641640 -1.953149
27.340000 -2.605007 -1.953486
27.360000 -2.567577 -1.949243
27.380000 -2.527902 -1.954130
27.400000 -2.488985 -1.958569
27.420000 -2.446245 -1.952225
27.440000 -2.403024 -1.952631
27.460000 -2.363909 -1.953906
27.480000 -2.316632 -1.953332
27.500000 -2.274388 -1.962266
27.520000 -2.232829 -1.945252
27.540000 -2.185516 -1.952379
27.560000 -2.138704 -1.956818
27.580000 -2.091532 -1.951567
27.600000 -2.044275 -1.948220
27.620000 -1.998621 -1.945868
27.640000 -1.948260 -1.947884
27.660000 -1.900267 -1.950405
27.680000 -1.851751 -1.950825
27.700000 -1.800990 -1.949733
27.720000 -1.748036 -1.952127
27.740000 -1.701417 -1.944733
27.760000 -1.645389 -1.947912
27.780000 -1.591511 -1.950195
27.800000 -1.535022 -1.947100
27.820000 -1.478732 -1.954074
27.840000 -1.425446 -1.949299
27.860000 -1.366825 -1.943207
27.880000 -1.313972 -1.948178
27.900000 -1.255589 -1.954284
27.920000 -1.195516 -1.946540
27.940000 -1.142301 -1.951819
27.960000 -1.082161 -1.950377
27.980000 -1.022273 -1.954858
28.000000 -0.958048 -1.950139
28.020000 -0.899838 -1.948304
28.040000 -0.842503 -1.952883
28.060000 -0.777955 -1.948668
28.080000 -0.720151 -1.952715
28.100000 -0.658605 -1.951105
28.120000 -0.592282 -1.948752
28.140000 -0.535932 -1.956916
28.160000 -0.474439 -1.948108
28.180000 -0.408569 -1.949593
28.200000 -0.350800 -1.948542
28.220000 -0.288006 -1.948318
28.240000 -0.227023 -1.949425
28.260000 -0.169792 -1.948654
28.280000 -0.102281 -1.951217
28.300000 -0.043874 -1.945882
28.320000 0.016918 -1.957729
28.340000 0.084237 -1.956188
28.360000 0.141374 -1.956552
28.380000 0.208285 -1.948402
28.400000 0.269747 -1.949257
28.420000 0.323426 -1.945448
28.440000 0.385246 -1.951385
28.460000 0.442449 -1.949397
28.480000 0.498794 -1.942773
28.500000 0.560828 -1.951987
28.520000 0.621122 -1.948780
28.540000 0.677138 -1.948290
28.560000 0.737919 -1.951539
28.580000 0.794134 -1.957897
28.600000 0.854766 -1.951777
28.620000 0.908017 -1.962140
28.640000 0.964679 -1.954438
28.660000 1.025001 -1.959465
28.680000 1.078756 -1.952645
28.700000 1.133947 -1.956818
28.720000 1.186786 -1.954648
28.740000 1.245001 -1.954970
28.760000 1.303757 -1.958177
28.780000 1.351120 -1.953416
28.800000 1.404947 -1.960641
28.820000 1.457885 -1.964394
28.840000 1.509408 -1.955040
28.860000 1.560673 -1.960109
28.880000 1.603826 -1.948780
28.900000 1.658555 -1.950979
28.920000 1.710408 -1.955180
28.940000 1.757097 -1.940238
28.960000 1.804501 -1.950545
28.980000 1.847996 -1.959493
29.000000 1.887643 -1.952057
29.020000 1.937237 -1.950321
29.040000 1.982411 -1.954438
29.060000 2.026203 -1.950013
29.080000 2.072153 -1.949999
29.100000 2.110667 -1.941821
29.120000 2.149619 -1.951133
29.140000 2.190489 -1.955362
29.160000 2.227380 -1.957519
29.180000 2.269485 -1.956552
29.200000 2.301328 -1.951567
29.220000 2.336242 -1.953360
29.240000 2.376411 -1.954326
29.260000 2.409504 -1.950223
29.280000 2.438301 -1.950629
29.300000 2.470825 -1.951581
29.320000 2.497794 -1.948976
29.340000 2.522895 -1.954970
29.360000 2.549178 -1.943865
29.380000 2.576225 -1.941653
29.400000 2.601792 -1.955992
29.420000 2.624386 -1.948052
29.440000 2.649813 -1.953640
29.460000 2.668019 -1.954438
29.480000 2.687674 -1.951861
29.500000 2.706834 -1.951259
29.520000 2.726848 -1.945532
29.540000 2.744713 -1.954284
29.560000 2.755090 -1.954634
29.580000 2.768766 -1.955838
29.600000 2.784190 -1.954228
29.620000 2.797984 -1.955082
29.640000 2.806038 -1.957070
29.660000 2.814375 -1.948570
29.680000 2.822278 -1.950265
29.700000 2.833769 -1.957953
29.720000 2.836232 -1.951399
29.740000 2.838311 -1.955096
29.760000 2.840792 -1.957645
29.780000 2.845200 -1.949033
29.800000 2.852486 -1.951413
29.820000 2.859993 -1.950727
29.840000 2.857731 -1.951259
29.860000 2.853660 -1.954634
29.880000 2.851317 -1.963106
29.900000 2.851723 -1.956216
29.920000 2.850723 -1.953163
29.940000 2.847115 -1.952743
29.960000 2.838093 -1.951273
29.980000 2.830252 -1.948304
30.000000 2.822761 -1.941863
30.020000 2.814790 -1.952001
30.040000 2.798771 -1.947660
30.060000 2.780990 -1.954690
30.080000 2.766284 -1.948878
30.100000 2.752907 -1.944958
30.120000 2.734514 -1.952365
30.140000 2.715620 -1.950475
30.160000 2.697915 -1.955530
30.180000 2.674895 -1.959353
30.200000 2.652942 -1.948612
30.220000 2.626597 -1.949887
30.240000 2.598297 -1.943809
30.260000 2.570356 -1.940490
30.280000 2.543071 -1.947996
30.300000 2.515720 -1.949173
30.320000 2.485799 -1.945518
30.340000 2.456301 -1.946484
30.360000 2.421779 -1.948164
30.380000 2.389280 -1.945938
30.400000 2.354717 -1.946946
30.420000 2.317499 -1.947702
30.440000 2.280161 -1.947996
30.460000 2.244300 -1.942969
30.480000 2.201472 -1.949439
30.500000 2.162439 -1.945098
30.520000 2.128866 -1.947226
30.540000 2.090243 -1.950587
30.560000 2.050907 -1.950321
30.580000 2.012617 -1.954340
30.600000 1.972258 -1.953234
30.620000 1.929006 -1.947996
30.640000 1.888180 -1.944509
30.660000 1.844390 -1.955418
30.680000 1.803925 -1.950251
30.700000 1.760334 -1.948458
30.720000 1.711237 -1.942507
30.740000 1.666201 -1.945098
30.760000 1.620878 -1.949971
30.780000 1.578221 -1.958079
30.800000 1.529725 -1.950405
30.820000 1.481746 -1.948836
30.840000 1.430443 -1.945392
30.860000 1.384973 -1.951693
30.880000 1.341301 -1.951189
30.900000 1.288337 -1.945168
30.920000 1.236653 -1.953360
30.940000 1.189683 -1.944299
30.960000 1.137042 -1.945686
30.980000 1.084258 -1.950069
31.000000 1.028029 -1.945980
31.020000 0.973939 -1.962728
31.040000 0.925708 -1.949719
31.060000 0.871873 -1.943137
31.080000 0.821304 -1.952309
31.100000 0.767736 -1.955320
31.120000 0.710570 -1.950671
31.140000 0.656414 -1.941821
31.160000 0.599466 -1.945266
31.180000 0.545086 -1.945084
31.200000 0.492996 -1.957981
31.220000 0.436715 -1.954844
31.240000 0.379859 -1.943543
31.260000 0.325476 -1.945462
31.280000 0.267874 -1.953276
31.300000 0.212477 -1.956006
31.320000 0.159237 -1.945322
31.340000 0.102469 -1.947156
31.360000 0.048862 -1.949523
31.380000 -0.003995 -1.950979
31.400000 -0.057926 -1.954172
31.420000 -0.109645 -1.951581
31.440000 -0.166357 -1.963680
31.460000 -0.226127 -1.952701
31.480000 -0.276287 -1.949523
31.500000 -0.332869 -1.946372
31.520000 -0.387285 -1.947198
31.540000 -0.436046 -1.948178
31.560000 -0.487609 -1.946848
31.580000 -0.543979 -1.949327
31.600000 -0.598919 -1.951273
31.620000 -0.648302 -1.948640
31.640000 -0.702319 -1.949411
31.660000 -0.756016 -1.949509
31.680000 -0.807740 -1.945000
31.700000 -0.860094 -1.947240
31.720000 -0.908490 -1.950587
31.740000 -0.960553 -1.952099
31.760000 -1.013481 -1.952519
31.780000 -1.060498 -1.952897
31.800000 -1.109347 -1.951035
31.820000 -1.156281 -1.952687
31.840000 -1.203443 -1.947016
31.860000 -1.255706 -1.948962
31.880000 -1.296958 -1.953079
31.900000 -1.343175 -1.948038
31.920000 -1.388552 -1.959003
31.940000 -1.430330 -1.960809
31.960000 -1.475205 -1.951679
31.980000 -1.516209 -1.949103
32.000000 -1.554906 -1.943053
32.020000 -1.596968 -1.943571
32.040000 -1.635155 -1.948640
32.060000 -1.671788 -1.954032
32.080000 -1.712371 -1.953654
32.100000 -1.751736 -1.942577
32.120000 -1.785170 -1.948528
32.140000 -1.816219 -1.949971
32.160000 -1.852058 -1.955628
32.180000 -1.883904 -1.951133
32.200000 -1.915726 -1.954256
32.220000 -1.947074 -1.953023
32.240000 -1.982561 -1.946834
32.260000 -2.011721 -1.946064
32.280000 -2.041504 -1.955320
32.300000 -2.073251 -1.952617
32.320000 -2.098895 -1.944145
32.340000 -2.123142 -1.947198
32.360000 -2.149523 -1.943683
32.380000 -2.178654 -1.947828
32.400000 -2.200167 -1.951595
32.420000 -2.220985 -1.950391
32.440000 -2.243725 -1.955054
32.460000 -2.264633 -1.944803
32.480000 -2.280832 -1.955614
32.500000 -2.297836 -1.950041
32.520000 -2.315907 -1.949215
32.540000 -2.331487 -1.954214
32.560000 -2.344894 -1.949593
32.580000 -2.359542 -1.947002
32.600000 -2.376919 -1.950741
32.620000 -2.393203 -1.952169
32.640000 -2.403353 -1.941023
32.660000 -2.412335 -1.953500
32.680000 -2.416293 -1.946750
32.700000 -2.422106 -1.947464
32.720000 -2.427053 -1.954340
32.740000 -2.430381 -1.954242
32.760000 -2.433492 -1.950643
32.780000 -2.434118 -1.947170
32.800000 -2.439301 -1.952841
32.820000 -2.442723 -1.948962
32.840000 -2.445269 -1.949873
32.860000 -2.447754 -1.944719
32.880000 -2.447730 -1.952113
32.900000 -2.445863 -1.945910
32.920000 -2.443140 -1.946358
32.940000 -2.439605 -1.949201
32.960000 -2.437080 -1.941149
32.980000 -2.429143 -1.947016
33.000000 -2.422388 -1.941583
33.020000 -2.415763 -1.948612
33.040000 -2.410090 -1.945518
33.060000 -2.402374 -1.948080
33.080000 -2.390636 -1.958317
33.100000 -2.375242 -1.959759
33.120000 -2.361734 -1.951637
33.140000 -2.345122 -1.948290
33.160000 -2.329688 -1.948220
33.180000 -2.307795 -1.955894
33.200000 -2.288846 -1.958667
33.220000 -2.270685 -1.960879
33.240000 -2.253017 -1.957603
33.260000 -2.231359 -1.956692
33.280000 -2.208387 -1.956174
33.300000 -2.185590 -1.958597
33.320000 -2.165365 -1.947156
33.340000 -2.139204 -1.950573
33.360000 -2.112561 -1.956398
33.380000 -2.088945 -1.958807
33.400000 -2.063991 -1.961916
33.420000 -2.030099 -1.952925
33.440000 -1.998938 -1.953612
33.460000 -1.968074 -1.952253
33.480000 -1.938354 -1.947604
33.500000 -1.905028 -1.945812
33.520000 -1.874449 -1.956286
33.540000 -1.847385 -1.947758
33.560000 -1.814143 -1.948080
33.580000 -1.783448 -1.940224
33.600000 -1.751593 -1.948878
33.620000 -1.718351 -1.951511
33.640000 -1.680635 -1.951623
33.660000 -1.642728 -1.954018
33.680000 -1.607918 -1.951651
33.700000 -1.568423 -1.950265
33.720000 -1.526839 -1.955740
33.740000 -1.485794 -1.947772
33.760000 -1.442917 -1.944019
33.780000 -1.399140 -1.943585
33.800000 -1.358812 -1.948990
33.820000 -1.318977 -1.943879
33.840000 -1.272848 -1.950559
33.860000 -1.227790 -1.955628
33.880000 -1.184336 -1.945322
33.900000 -1.133032 -1.960361
33.920000 -1.087734 -1.952981
33.940000 -1.045059 -1.955740
33.960000 -0.996081 -1.953079
33.980000 -0.945473 -1.954172
34.000000 -0.906897 -1.948346
34.020000 -0.858208 -1.958149
34.040000 -0.810990 -1.951245
34.060000 -0.765723 -1.962490
34.080000 -0.716359 -1.956916
34.100000 -0.668579 -1.960137
34.120000 -0.623353 -1.957533
34.140000 -0.572733 -1.952071
34.160000 -0.522726 -1.951805
34.180000 -0.477519 -1.945028
34.200000 -0.428329 -1.946526
34.220000 -0.375409 -1.948598
34.240000 -0.327656 -1.951161
34.260000 -0.282991 -1.953248
34.280000 -0.232347 -1.950601
34.300000 -0.180559 -1.952659
34.320000 -0.133694 -1.960011
34.340000 -0.087291 -1.952407
34.360000 -0.034589 -1.951525
34.380000 0.012686 -1.945350
34.400000 0.060690 -1.953234
34.420000 0.108204 -1.948570
34.440000 0.163685 -1.946960
34.460000 0.212151 -1.950111
34.480000 0.259728 -1.949285
34.500000 0.316361 -1.951987
34.520000 0.368922 -1.953542
34.540000 0.415303 -1.950811
34.560000 0.463830 -1.952967
34.580000 0.516976 -1.945434
34.600000 0.564593 -1.952631
34.620000 0.613715 -1.956790
34.640000 0.664114 -1.951637
34.660000 0.712857 -1.959913
34.680000 0.758082 -1.948808
34.700000 0.805812 -1.952967
34.720000 0.845687 -1.951763
34.740000 0.890323 -1.954844
34.760000 0.938570 -1.948080
34.780000 0.980201 -1.957294
34.800000 1.020211 -1.957967
34.820000 1.066923 -1.952239
34.840000 1.107421 -1.955768
34.860000 1.146565 -1.952687
34.880000 1.188642 -1.953374
34.900000 1.227638 -1.947128
34.920000 1.265844 -1.961692
34.940000 1.306313 -1.961538
34.960000 1.345492 -1.951609
34.980000 1.380863 -1.952673
35.000000 1.419725 -1.958457
35.020000 1.461394 -1.956118
35.040000 1.494474 -1.957491
35.060000 1.524538 -1.951973
35.080000 1.556426 -1.956174
35.100000 1.589808 -1.952533
35.120000 1.622378 -1.958961
35.140000 1.657218 -1.961299
35.160000 1.694750 -1.948640
35.180000 1.726058 -1.945070
35.200000 1.755483 -1.947352
35.220000 1.785001 -1.960851
35.240000 1.815436 -1.959927
35.260000 1.839253 -1.957252
35.280000 1.866568 -1.955852
35.300000 1.895649 -1.953402
35.320000 1.919744 -1.950391
35.340000 1.943320 -1.950909
35.360000 1.973578 -1.958009
35.380000 2.004097 -1.954102
35.400000 2.028007 -1.956566
35.420000 2.053236 -1.952883
35.440000 2.078687 -1.952533
35.460000 2.103842 -1.950797
35.480000 2.124278 -1.956020
35.500000 2.145834 -1.957351
35.520000 2.168874 -1.949397
35.540000 2.188438 -1.950013
35.560000 2.205068 -1.952211
35.580000 2.221377 -1.952099
35.600000 2.235483 -1.951525
35.620000 2.249692 -1.956580
35.640000 2.260177 -1.954354
35.660000 2.269214 -1.951175
35.680000 2.280678 -1.954858
35.700000 2.293616 -1.947478
35.720000 2.304342 -1.950531
35.740000 2.316105 -1.963232
35.760000 2.329191 -1.952379
35.780000 2.341743 -1.958569
35.800000 2.353150 -1.962546
35.820000 2.356208 -1.951119
35.840000 2.353559 -1.950685
35.860000 2.353767 -1.958177
35.880000 2.351552 -1.952519
35.900000 2.353421 -1.956202
35.920000 2.349955 -1.955152
35.940000 2.348727 -1.955740
35.960000 2.340913 -1.954998
35.980000 2.329858 -1.951091
36.000000 2.318570 -1.960641
36.020000 2.304653 -1.949691
36.040000 2.292848 -1.956748
36.060000 2.281582 -1.964828
36.080000 2.270861 -1.952813
36.100000 2.262645 -1.949271
36.120000 2.254880 -1.945056
36.140000 2.244409 -1.948990
36.160000 2.234776 -1.949565
36.180000 2.218054 -1.954074
36.200000 2.204220 -1.957379
36.220000 2.188757 -1.952323
36.240000 2.170445 -1.944719
36.260000 2.148369 -1.951161
36.280000 2.127215 -1.947212
36.300000 2.105718 -1.953948
36.320000 2.086062 -1.956594
36.340000 2.061961 -1.950391
36.360000 2.038046 -1.957056
36.380000 2.014935 -1.956300
36.400000 1.994021 -1.952183
36.420000 1.966415 -1.949327
36.440000 1.938174 -1.953556
36.460000 1.915898 -1.955376
36.480000 1.895781 -1.952841
36.500000 1.865856 -1.954536
36.520000 1.841486 -1.956258
36.540000 1.816674 -1.952351
36.560000 1.789354 -1.952729
36.580000 1.755036 -1.954354
36.600000 1.720287 -1.954298
36.620000 1.687462 -1.954508
36.640000 1.655045 -1.957252
36.660000 1.619292 -1.947898
36.680000 1.586117 -1.947268
36.700000 1.554979 -1.955950
36.720000 1.522071 -1.952309
36.740000 1.487934 -1.943249
36.760000 1.449423 -1.951259
36.780000 1.415540 -1.957014
36.800000 1.376408 -1.958219
36.820000 1.337876 -1.955432
36.840000 1.302517 -1.960249
36.860000 1.265902 -1.953612
36.880000 1.226726 -1.957210
36.900000 1.189992 -1.956888
36.920000 1.151593 -1.958667
36.940000 1.107713 -1.955264
36.960000 1.064436 -1.958163
36.980000 1.021856 -1.960109
37.000000 0.985196 -1.964128
37.020000 0.938601 -1.952939
37.040000 0.894422 -1.953023
37.060000 0.854685 -1.951399
37.080000 0.812057 -1.954900
37.100000 0.769369 -1.953836
37.120000 0.729975 -1.950069
37.140000 0.686508 -1.959605
37.160000 0.640299 -1.949075
37.180000 0.597757 -1.956034
37.200000 0.554537 -1.949159
37.220000 0.504625 -1.953738
37.240000 0.459315 -1.953878
37.260000 0.418378 -1.949271
37.280000 0.371630 -1.947646
37.300000 0.320392 -1.948752
37.320000 0.280724 -1.953346
37.340000 0.238636 -1.955614
37.360000 0.196089 -1.952631
37.380000 0.148633 -1.952099
37.400000 0.111636 -1.960333
37.420000 0.071392 -1.949187
37.440000 0.027491 -1.950391
37.460000 -0.016833 -1.957659
37.480000 -0.057415 -1.954914
37.500000 -0.099555 -1.950279
37.520000 -0.140410 -1.953402
37.540000 -0.187021 -1.940154
37.560000 -0.230538 -1.949579
37.580000 -0.272135 -1.945602
37.600000 -0.316652 -1.944509
37.620000 -0.360396 -1.952435
37.640000 -0.404364 -1.948318
37.660000 -0.448726 -1.949747
37.680000 -0.488915 -1.948556
37.700000 -0.532180 -1.950909
37.720000 -0.581355 -1.954760
37.740000 -0.628162 -1.948962
37.760000 -0.669204 -1.957561
37.780000 -0.706492 -1.952533
37.800000 -0.746576 -1.950489
37.820000 -0.791848 -1.948416
37.840000 -0.831021 -1.955824
37.860000 -0.870458 -1.946806
37.880000 -0.912151 -1.949873
37.900000 -0.947712 -1.955502
37.920000 -0.984878 -1.955824
37.940000 -1.030473 -1.948500
37.960000 -1.072061 -1.953500
37.980000 -1.107188 -1.954382
38.000000 -1.142923 -1.950699
38.020000 -1.179685 -1.953836
38.040000 -1.212729 -1.956132
38.060000 -1.247923 -1.949033
38.080000 -1.286704 -1.952337
38.100000 -1.322621 -1.950153
38.120000 -1.352566 -1.946036
38.140000 -1.384639 -1.947996
38.160000 -1.416242 -1.955768
38.180000 -1.446411 -1.952897
38.200000 -1.471445 -1.952925
38.220000 -1.499424 -1.950307
38.240000 -1.526517 -1.949845
38.260000 -1.558676 -1.949551
38.280000 -1.586869 -1.953794
38.300000 -1.614567 -1.957084
38.320000 -1.642123 -1.954354
38.340000 -1.671203 -1.949383
38.360000 -1.694962 -1.950251
38.380000 -1.719646 -1.953584
38.400000 -1.742678 -1.949131
38.420000 -1.767100 -1.949383
38.440000 -1.786961 -1.954620
38.460000 -1.806960 -1.955922
38.480000 -1.825872 -1.946134
38.500000 -1.847041 -1.951287
38.520000 -1.864573 -1.942325
38.540000 -1.874065 -1.945644
38.560000 -1.886101 -1.950587
38.580000 -1.898219 -1.944285
38.600000 -1.910953 -1.948906
38.620000 -1.924042 -1.953079
38.640000 -1.933001 -1.946540
38.660000 -1.940665 -1.960361
38.680000 -1.949032 -1.951777
38.700000 -1.956795 -1.951049
38.720000 -1.963505 -1.946148
38.740000 -1.966506 -1.956986
38.760000 -1.962955 -1.949299
38.780000 -1.959949 -1.949929
38.800000 -1.958466 -1.947744
38.820000 -1.959978 -1.949173
38.840000 -1.964199 -1.951161
38.860000 -1.969966 -1.949817
38.880000 -1.972133 -1.946666
38.900000 -1.972306 -1.939692
38.920000 -1.971372 -1.938292
38.940000 -1.973097 -1.951343
38.960000 -1.968889 -1.947506
38.980000 -1.962743 -1.953794
39.000000 -1.960223 -1.956664
39.020000 -1.958998 -1.946890
39.040000 -1.959142 -1.947562
39.060000 -1.959551 -1.954312
39.080000 -1.956196 -1.949145
39.100000 -1.950882 -1.946918
39.120000 -1.943594 -1.955222
39.140000 -1.936617 -1.950405
39.160000 -1.930356 -1.950265
39.180000 -1.924091 -1.954732
39.200000 -1.913121 -1.950699
39.220000 -1.901961 -1.941555
39.240000 -1.888182 -1.948962
39.260000 -1.875106 -1.948920
39.280000 -1.863537 -1.946848
39.300000 -1.852849 -1.940224
39.320000 -1.839603 -1.942703
39.340000 -1.819521 -1.951119
39.360000 -1.801077 -1.956062
39.380000 -1.785167 -1.944719
39.400000 -1.769122 -1.950531
39.420000 -1.750686 -1.952981
39.440000 -1.723651 -1.939426
39.460000 -1.697607 -1.948136
39.480000 -1.672060 -1.940841
39.500000 -1.645531 -1.950783
39.520000 -1.615927 -1.948990
39.540000 -1.585562 -1.951777
39.560000 -1.559522 -1.951077
39.580000 -1.536099 -1.953822
39.600000 -1.514823 -1.947632
39.620000 -1.485963 -1.954242
39.640000 -1.458511 -1.945490
39.660000 -1.429740 -1.952127
39.680000 -1.403527 -1.941317
39.700000 -1.372599 -1.946652
39.720000 -1.343223 -1.956510
39.740000 -1.310762 -1.946442
39.760000 -1.279056 -1.945518
39.780000 -1.245428 -1.944705
39.800000 -1.212315 -1.958065
39.820000 -1.180869 -1.951427
39.840000 -1.149867 -1.949859
39.860000 -1.115336 -1.951469
39.880000 -1.077542 -1.948668
39.900000 -1.042044 -1.950643
39.920000 -1.007522 -1.953682
39.940000 -0.967530 -1.946806
39.960000 -0.929832 -1.938614
39.980000 -0.892670 -1.948682
40.000000 -0.854840 -1.949635
40.020000 -0.813428 -1.950167
40.040000 -0.775149 -1.951147
40.060000 -0.742559 -1.953990
40.080000 -0.703262 -1.954942
40.100000 -0.660175 -1.944117
40.120000 -0.616714 -1.948038
40.140000 -0.578769 -1.947170
40.160000 -0.541078 -1.940532
40.180000 -0.500729 -1.946498
40.200000 -0.460323 -1.950489
40.220000 -0.416647 -1.947688
40.240000 -0.370842 -1.948542
40.260000 -0.330805 -1.948262
40.280000 -0.295489 -1.940196
40.300000 -0.255687 -1.947436
40.320000 -0.213059 -1.941303
40.340000 -0.172284 -1.941709
40.360000 -0.135161 -1.942143
40.380000 -0.096015 -1.944761
40.400000 -0.055078 -1.952715
40.420000 -0.010609 -1.948346
40.440000 0.027757 -1.951007
40.460000 0.062828 -1.950363
40.480000 0.095993 -1.939146
40.500000 0.137629 -1.943333
40.520000 0.177141 -1.947058
40.540000 0.217345 -1.953640
40.560000 0.252478 -1.957897
40.580000 0.295116 -1.951833
40.600000 0.336526 -1.943781
40.620000 0.374152 -1.954172
40.640000 0.411312 -1.942857
40.660000 0.450541 -1.940280
40.680000 0.490561 -1.944789
40.700000 0.529257 -1.951735
40.720000 0.572105 -1.952519
40.740000 0.611563 -1.948150
40.760000 0.642192 -1.941625
40.780000 0.680695 -1.948332
40.800000 0.722235 -1.945462
40.820000 0.766005 -1.960851
40.840000 0.799714 -1.946386
40.860000 0.834560 -1.947772
40.880000 0.873952 -1.949439
40.900000 0.907689 -1.943291
40.920000 0.940191 -1.940462
40.940000 0.973118 -1.947058
40.960000 1.010486 -1.948262
40.980000 1.041894 -1.943333
41.000000 1.070574 -1.945616
41.020000 1.103547 -1.946890
41.040000 1.138787 -1.944075
41.060000 1.171607 -1.950713
41.080000 1.202063 -1.943739
41.100000 1.235935 -1.948234
41.120000 1.267345 -1.949775
41.140000 1.293771 -1.944033
41.160000 1.321976 -1.953710
41.180000 1.348855 -1.947520
41.200000 1.376629 -1.952855
41.220000 1.403695 -1.949103
41.240000 1.428209 -1.954326
41.260000 1.451677 -1.946526
41.280000 1.479443 -1.957337
41.300000 1.507931 -1.953570
41.320000 1.532837 -1.949789
41.340000 1.551089 -1.952659
41.360000 1.570195 -1.949677
41.380000 1.593250 -1.940014
41.400000 1.615905 -1.951917
41.420000 1.634156 -1.949915
41.440000 1.655022 -1.946988
41.460000 1.676746 -1.952071
41.480000 1.700370 -1.952645
41.500000 1.718660 -1.953163
41.520000 1.734319 -1.951903
41.540000 1.749583 -1.956412
41.560000 1.767777 -1.947534
41.580000 1.788439 -1.947184
41.600000 1.802753 -1.951497
41.620000 1.815396 -1.956286
41.640000 1.826188 -1.951245
41.660000 1.836031 -1.953612
41.680000 1.846076 -1.956664
41.700000 1.855260 -1.951721
41.720000 1.861686 -1.954928
41.740000 1.868911 -1.945378
41.760000 1.878405 -1.942115
41.780000 1.888025 -1.943977
41.800000 1.897239 -1.950265
41.820000 1.907418 -1.945364
41.840000 1.916962 -1.943221
41.860000 1.921361 -1.955362
41.880000 1.922791 -1.952477
41.900000 1.923448 -1.950069
41.920000 1.924510 -1.949551
41.940000 1.923668 -1.953584
41.960000 1.924618 -1.943067
41.980000 1.921777 -1.952239
42.000000 1.921675 -1.951791
42.020000 1.918990 -1.951777
42.040000 1.916197 -1.951609
42.060000 1.909941 -1.955306
42.080000 1.902688 -1.946246
42.100000 1.890493 -1.955012
42.120000 1.879461 -1.955222
42.140000 1.868494 -1.947184
42.160000 1.863047 -1.952099
42.180000 1.855950 -1.952449
42.200000 1.846791 -1.950097
42.220000 1.832591 -1.951763
42.240000 1.821413 -1.951693
42.260000 1.808845 -1.953654
42.280000 1.798280 -1.952365
42.300000 1.783479 -1.953598
42.320000 1.766309 -1.949355
42.340000 1.749030 -1.943487
42.360000 1.733009 -1.954816
42.380000 1.718100 -1.942563
42.400000 1.702221 -1.945448
42.420000 1.680178 -1.945392
42.440000 1.658275 -1.950951
42.460000 1.635063 -1.954606
42.480000 1.617836 -1.944649
42.500000 1.601652 -1.946806
42.520000 1.579990 -1.949999
42.540000 1.560217 -1.952827
42.560000 1.540351 -1.948304
42.580000 1.520534 -1.949775
42.600000 1.496629 -1.954508
42.620000 1.473654 -1.949719
42.640000 1.447621 -1.947422
42.660000 1.422859 -1.956300
42.680000 1.398980 -1.950013
42.700000 1.373975 -1.960571
42.720000 1.346218 -1.956860
42.740000 1.317960 -1.948668
42.760000 1.291401 -1.952169
42.780000 1.267378 -1.952827
42.800000 1.241073 -1.950461
42.820000 1.208216 -1.952589
42.840000 1.176415 -1.944047
42.860000 1.147145 -1.940210
42.880000 1.117807 -1.954788
42.900000 1.083367 -1.950573
42.920000 1.051610 -1.952673
42.940000 1.024157 -1.950979
42.960000 0.996114 -1.948080
42.980000 0.959451 -1.955194
43.000000 0.923248 -1.952267
43.020000 0.891654 -1.951287
43.040000 0.862386 -1.949803
43.060000 0.830038 -1.953668
43.080000 0.792369 -1.945266
43.100000 0.754807 -1.952757
43.120000 0.720117 -1.954088
43.140000 0.684886 -1.954690
43.160000 0.648889 -1.948332
43.180000 0.611167 -1.950797
43.200000 0.574513 -1.953808
43.220000 0.535249 -1.946862
43.240000 0.497763 -1.948780
43.260000 0.461922 -1.948822
43.280000 0.429418 -1.947912
43.300000 0.390754 -1.957505
43.320000 0.347521 -1.945952
43.340000 0.308162 -1.949523
43.360000 0.273234 -1.947870
43.380000 0.237173 -1.951469
43.400000 0.198842 -1.945994
43.420000 0.159184 -1.949355
43.440000 0.125667 -1.947212
43.460000 0.093716 -1.945308
43.480000 0.057676 -1.948514
43.500000 0.019647 -1.951105
43.520000 -0.018099 -1.955068
43.540000 -0.050012 -1.941891
43.560000 -0.083255 -1.947464
43.580000 -0.115102 -1.949117
43.600000 -0.153757 -1.951469
43.620000 -0.191927 -1.947114
43.640000 -0.226424 -1.947786
43.660000 -0.259287 -1.940827
43.680000 -0.293434 -1.943333
43.700000 -0.327371 -1.952449
43.720000 -0.361849 -1.943795
43.740000 -0.394899 -1.942759
43.760000 -0.431018 -1.943347
43.780000 -0.469381 -1.950265
43.800000 -0.501691 -1.944691
43.820000 -0.533615 -1.953079
43.840000 -0.573157 -1.945882
43.860000 -0.612257 -1.943081
43.880000 -0.648194 -1.941821
43.900000 -0.680483 -1.941611
43.920000 -0.712879 -1.942633
43.940000 -0.747145 -1.949621
43.960000 -0.782207 -1.942493
43.980000 -0.815774 -1.951791
44.000000 -0.849836 -1.948570
44.020000 -0.884170 -1.948346
44.040000 -0.917740 -1.943809
44.060000 -0.942993 -1.944649
44.080000 -0.970149 -1.945140
44.100000 -1.000916 -1.947590
44.120000 -1.031001 -1.939818
44.140000 -1.062625 -1.942619
44.160000 -1.090321 -1.951427
44.180000 -1.119962 -1.950783
44.200000 -1.147617 -1.957379
44.220000 -1.174848 -1.951301
44.240000 -1.195073 -1.945294
44.260000 -1.219064 -1.943795
44.280000 -1.243518 -1.946274
44.300000 -1.266767 -1.940701
44.320000 -1.288270 -1.949425
44.340000 -1.305510 -1.946764
44.360000 -1.327961 -1.944341
44.380000 -1.347455 -1.950755
44.400000 -1.368381 -1.944537
44.420000 -1.389296 -1.945532
44.440000 -1.409209 -1.942927
44.460000 -1.428081 -1.946722
44.480000 -1.448166 -1.959955
44.500000 -1.471567 -1.942255
44.520000 -1.494128 -1.952295
44.540000 -1.512207 -1.945700
44.560000 -1.527792 -1.945658
44.580000 -1.542252 -1.945224
44.600000 -1.557746 -1.946890
44.620000 -1.573266 -1.951217
44.640000 -1.586745 -1.949369
44.660000 -1.596238 -1.949355
44.680000 -1.603165 -1.953920
44.700000 -1.609720 -1.948416
44.720000 -1.616061 -1.950419
44.740000 -1.619734 -1.949061
44.760000 -1.625504 -1.954634
44.780000 -1.629002 -1.955292
44.800000 -1.630299 -1.949383
44.820000 -1.631592 -1.952029
44.840000 -1.634980 -1.950909
44.860000 -1.636375 -1.947576
44.880000 -1.640912 -1.945490
44.900000 -1.648040 -1.951231
44.920000 -1.655572 -1.943613
44.940000 -1.660873 -1.944930
44.960000 -1.662167 -1.940785
44.980000 -1.663612 -1.948164
45.000000 -1.661634 -1.955894
45.020000 -1.656828 -1.943291
45.040000 -1.651283 -1.945686
45.060000 -1.645053 -1.946456
45.080000 -1.641839 -1.946666
45.100000 -1.640131 -1.949271
45.120000 -1.638503 -1.951063
45.140000 -1.636634 -1.952113
45.160000 -1.637268 -1.954312
45.180000 -1.633505 -1.952001
45.200000 -1.626019 -1.956566
45.220000 -1.620302 -1.950657
45.240000 -1.612925 -1.953107
45.260000 -1.606693 -1.944831
45.280000 -1.600857 -1.945896
45.300000 -1.590395 -1.947044
45.320000 -1.575391 -1.955348
45.340000 -1.557463 -1.950433
45.360000 -1.539896 -1.951889
45.380000 -1.523909 -1.947016
45.400000 -1.508673 -1.954354
45.420000 -1.490200 -1.951511
45.440000 -1.469962 -1.951875
45.460000 -1.449171 -1.946708
45.480000 -1.429465 -1.942871
45.500000 -1.409580 -1.947044
45.520000 -1.389086 -1.946750
45.540000 -1.367527 -1.943011
45.560000 -1.346688 -1.952211
45.580000 -1.325489 -1.945196
45.600000 -1.304895 -1.943221
45.620000 -1.284323 -1.952897
45.640000 -1.264202 -1.950601
45.660000 -1.241812 -1.943669
45.680000 -1.219668 -1.952435
45.700000 -1.196990 -1.946792
45.720000 -1.172548 -1.951847
45.740000 -1.149786 -1.956384
45.760000 -1.124512 -1.951959
45.780000 -1.096493 -1.946414
45.800000 -1.065292 -1.943543
45.820000 -1.037659 -1.941653
45.840000 -1.015419 -1.949215
45.860000 -0.991851 -1.949439
45.880000 -0.966366 -1.949621
45.900000 -0.939249 -1.955852
45.920000 -0.912468 -1.950671
45.940000 -0.885128 -1.948710
45.960000 -0.853143 -1.956622
45.980000 -0.817395 -1.945952
46.000000 -0.783044 -1.947408
46.020000 -0.757070 -1.942591
46.040000 -0.732673 -1.947408
46.060000 -0.699985 -1.943389
46.080000 -0.664393 -1.952967
46.100000 -0.628348 -1.949551
46.120000 -0.596871 -1.952771
46.140000 -0.560011 -1.949649
46.160000 -0.526066 -1.951371
46.180000 -0.494096 -1.954844
46.200000 -0.463404 -1.951763
46.220000 -0.429276 -1.955222
46.240000 -0.392698 -1.952337
46.260000 -0.359711 -1.955152
46.280000 -0.327652 -1.947142
46.300000 -0.296793 -1.944411
46.320000 -0.261205 -1.948108
46.340000 -0.222844 -1.952197
46.360000 -0.183017 -1.951021
46.380000 -0.151002 -1.950209
46.400000 -0.118832 -1.948276
46.420000 -0.085569 -1.938334
46.440000 -0.050086 -1.948612
46.460000 -0.014367 -1.942955
46.480000 0.021801 -1.955824
46.500000 0.052905 -1.953262
46.520000 0.083045 -1.952043
46.540000 0.115088 -1.948598
46.560000 0.147320 -1.944565
46.580000 0.181170 -1.952813
46.600000 0.211219 -1.950811
46.620000 0.236824 -1.956076
46.640000 0.268750 -1.947338
46.660000 0.302852 -1.954592
46.680000 0.338583 -1.951987
46.700000 0.369068 -1.949691
46.720000 0.397323 -1.940672
46.740000 0.426911 -1.942507
46.760000 0.460189 -1.954326
46.780000 0.496343 -1.960879
46.800000 0.528708 -1.945910
46.820000 0.558023 -1.958723
46.840000 0.590840 -1.946540
46.860000 0.626000 -1.946302
46.880000 0.652416 -1.956748
46.900000 0.685506 -1.947436
46.920000 0.720358 -1.955502
46.940000 0.759060 -1.949593
46.960000 0.787812 -1.952561
46.980000 0.813786 -1.945826
47.000000 0.840698 -1.955152
47.020000 0.868260 -1.956776
47.040000 0.901417 -1.947170
47.060000 0.931277 -1.943683
47.080000 0.961501 -1.946246
47.100000 0.990618 -1.950461
47.120000 1.020908 -1.955306
47.140000 1.048514 -1.950657
47.160000 1.069322 -1.956398
47.180000 1.090044 -1.945490
47.200000 1.113173 -1.958289
47.220000 1.137858 -1.943725
47.240000 1.161387 -1.952883
47.260000 1.183121 -1.947604
47.280000 1.204744 -1.951497
47.300000 1.222562 -1.946624
47.320000 1.243403 -1.949831
47.340000 1.266016 -1.947702
47.360000 1.283504 -1.949649
47.380000 1.301828 -1.953640
47.400000 1.315216 -1.952687
47.420000 1.331232 -1.958149
47.440000 1.348845 -1.944761
47.460000 1.362758 -1.944663
47.480000 1.376111 -1.949033
47.500000 1.388308 -1.955390
47.520000 1.399750 -1.947730
47.540000 1.413632 -1.950517
47.560000 1.429883 -1.956202
47.580000 1.445896 -1.953906
47.600000 1.456783 -1.941317
47.620000 1.467692 -1.952771
47.640000 1.480541 -1.954956
47.660000 1.493673 -1.946470
47.680000 1.509722 -1.955516
47.700000 1.529706 -1.945420
47.720000 1.542091 -1.947800
47.740000 1.553658 -1.947954
47.760000 1.564695 -1.943011
47.780000 1.577984 -1.945098
47.800000 1.592208 -1.957757
47.820000 1.606871 -1.955054
47.840000 1.625423 -1.951091
47.860000 1.635378 -1.954592
47.880000 1.643964 -1.945896
47.900000 1.649992 -1.951497
47.920000 1.654747 -1.949719
47.940000 1.660116 -1.946974
47.960000 1.662460 -1.950937
47.980000 1.666411 -1.946008
48.000000 1.665526 -1.954200
48.020000 1.667433 -1.948710
48.040000 1.668291 -1.953163
48.060000 1.668904 -1.954774
48.080000 1.666615 -1.952925
48.100000 1.663447 -1.953416
48.120000 1.659221 -1.951567
48.140000 1.652446 -1.951385
48.160000 1.640245 -1.956790
48.180000 1.623200 -1.960767
48.200000 1.607306 -1.950433
48.220000 1.592844 -1.951217
48.240000 1.578203 -1.951469
48.260000 1.564160 -1.955740
48.280000 1.550270 -1.952323
48.300000 1.537916 -1.952477
48.320000 1.520348 -1.948206
48.340000 1.502920 -1.950181
48.360000 1.487124 -1.961776
48.380000 1.472297 -1.946778
48.400000 1.460078 -1.950195
48.420000 1.447284 -1.946106
48.440000 1.430946 -1.955600
48.460000 1.412975 -1.957379
48.480000 1.398186 -1.954228
48.500000 1.383632 -1.943305
48.520000 1.372432 -1.953542
48.540000 1.361867 -1.949551
48.560000 1.346790 -1.951539
48.580000 1.329081 -1.952197
48.600000 1.311156 -1.953023
48.620000 1.294988 -1.951875
48.640000 1.279414 -1.952995
48.660000 1.260934 -1.949537
48.680000 1.243217 -1.943809
48.700000 1.220673 -1.946036
48.720000 1.200109 -1.952939
48.740000 1.179536 -1.954998
48.760000 1.158836 -1.947534
48.780000 1.137316 -1.948402
48.800000 1.112544 -1.945854
48.820000 1.092063 -1.948150
48.840000 1.070124 -1.945616
48.860000 1.048893 -1.951413
48.880000 1.026601 -1.954760
48.900000 1.000981 -1.946036
48.920000 0.973433 -1.938866
48.940000 0.942065 -1.950825
48.960000 0.912805 -1.950979
48.980000 0.882433 -1.945028
49.000000 0.856253 -1.950405
49.020000 0.825953 -1.950643
49.040000 0.798627 -1.953163
49.060000 0.771948 -1.951315
49.080000 0.744049 -1.953920
49.100000 0.712327 -1.953093
49.120000 0.675459 -1.951973
49.140000 0.645416 -1.953304
49.160000 0.619155 -1.945980
49.180000 0.592893 -1.953598
49.200000 0.564224 -1.943795
49.220000 0.528032 -1.949551
49.240000 0.492546 -1.949019
49.260000 0.465827 -1.952575
49.280000 0.444002 -1.950083
49.300000 0.414642 -1.959297
49.320000 0.381796 -1.956174
49.340000 0.347783 -1.950419
49.360000 0.314496 -1.956972
49.380000 0.286195 -1.956510
49.400000 0.256549 -1.950643
49.420000 0.222709 -1.959633
49.440000 0.190776 -1.955894
49.460000 0.160292 -1.956930
49.480000 0.131953 -1.949047
49.500000 0.100704 -1.951441
49.520000 0.071189 -1.944411
49.540000 0.040573 -1.953822
49.560000 0.010868 -1.958247
49.580000 -0.016838 -1.952505
49.600000 -0.048337 -1.951455
49.620000 -0.074832 -1.949201
49.640000 -0.103733 -1.954298
49.660000 -0.133805 -1.951091
49.680000 -0.161813 -1.950839
49.700000 -0.191907 -1.951063
49.720000 -0.221352 -1.944341
49.740000 -0.251043 -1.947520
49.760000 -0.277827 -1.947142
49.780000 -0.310289 -1.957126
49.800000 -0.340226 -1.960263
49.820000 -0.371659 -1.957701
49.840000 -0.398857 -1.956972
49.860000 -0.425041 -1.952701
49.880000 -0.452111 -1.955810
49.900000 -0.479323 -1.952071
49.920000 -0.510682 -1.955558
49.940000 -0.537888 -1.952757
49.960000 -0.566793 -1.957379
49.980000 -0.595697 -1.949733
50.000000 -0.625661 -1.952449
50.020000 -0.654117 -1.949327
50.040000 -0.675191 -1.953542
50.060000 -0.698329 -1.952617
50.080000 -0.726080 -1.954858
50.100000 -0.761240 -1.954816
50.120000 -0.790956 -1.951903
50.140000 -0.815786 -1.957631
50.160000 -0.840966 -1.954088
50.180000 -0.867034 -1.960277
50.200000 -0.896403 -1.953514
50.220000 -0.920993 -1.951665
50.240000 -0.937804 -1.951399
50.260000 -0.955706 -1.948696
50.280000 -0.974577 -1.960137
50.300000 -0.995392 -1.953808
50.320000 -1.016292 -1.956944
50.340000 -1.036386 -1.950125
50.360000 -1.054970 -1.953864
50.380000 -1.074720 -1.943207
50.400000 -1.098208 -1.945868
50.420000 -1.118850 -1.950839
50.440000 -1.140885 -1.944775
50.460000 -1.158961 -1.950979
50.480000 -1.172045 -1.947534
50.500000 -1.188546 -1.954970
50.520000 -1.203690 -1.946568
50.540000 -1.217127 -1.947954
50.560000 -1.229063 -1.954494
50.580000 -1.243362 -1.947744
50.600000 -1.252267 -1.956692
50.620000 -1.262424 -1.951875
50.640000 -1.271892 -1.952169
50.660000 -1.277032 -1.944972
50.680000 -1.283497 -1.951553
50.700000 -1.294002 -1.953864
50.720000 -1.305516 -1.948430
50.740000 -1.311843 -1.949495
50.760000 -1.317194 -1.957533
50.780000 -1.319638 -1.952309
50.800000 -1.324247 -1.949061
50.820000 -1.329180 -1.950433
50.840000 -1.331725 -1.944187
50.860000 -1.336690 -1.950881
50.880000 -1.338669 -1.944747
50.900000 -1.340358 -1.954116
50.920000 -1.336494 -1.946890
50.940000 -1.330330 -1.953864
50.960000 -1.327060 -1.948010
50.980000 -1.323370 -1.955026
51.000000 -1.321035 -1.957168
51.020000 -1.318251 -1.947366
51.040000 -1.316458 -1.950937
51.060000 -1.318109 -1.953752
51.080000 -1.321614 -1.943837
51.100000 -1.326755 -1.948976
51.120000 -1.333195 -1.951917
51.140000 -1.339070 -1.948150
51.160000 -1.340197 -1.954046
51.180000 -1.335001 -1.950895
51.200000 -1.330894 -1.947982
51.220000 -1.327576 -1.945140
51.240000 -1.322733 -1.946582
51.260000 -1.317236 -1.947324
51.280000 -1.313400 -1.947268
51.300000 -1.307439 -1.956860
51.320000 -1.302167 -1.951035
51.340000 -1.295183 -1.944902
51.360000 -1.284406 -1.958541
51.380000 -1.277609 -1.954564
51.400000 -1.269610 -1.944537
51.420000 -1.263525 -1.953346
51.440000 -1.257334 -1.947282
51.460000 -1.247162 -1.947464
51.480000 -1.239285 -1.952519
51.500000 -1.227740 -1.949761
51.520000 -1.213809 -1.952015
51.540000 -1.200395 -1.952953
51.560000 -1.185126 -1.954382
51.580000 -1.166614 -1.951119
51.600000 -1.151934 -1.954480
51.620000 -1.133662 -1.952239
51.640000 -1.111457 -1.952463
51.660000 -1.089581 -1.943431
51.680000 -1.067150 -1.951777
51.700000 -1.045405 -1.951749
51.720000 -1.025582 -1.951385
51.740000 -1.008332 -1.951553
51.760000 -0.990827 -1.949789
51.780000 -0.970368 -1.949425
51.800000 -0.948778 -1.951735
51.820000 -0.930312 -1.948836
51.840000 -0.913226 -1.953864
51.860000 -0.891956 -1.949635
51.880000 -0.868517 -1.950307
51.900000 -0.839211 -1.954452
51.920000 -0.810039 -1.948094
51.940000 -0.784336 -1.953023
51.960000 -0.756512 -1.951063
51.980000 -0.727622 -1.949929
52.000000 -0.699511 -1.951945
52.020000 -0.674468 -1.951917
52.040000 -0.651190 -1.950587
52.060000 -0.629848 -1.949677
52.080000 -0.604506 -1.951091
52.100000 -0.574430 -1.948332
52.120000 -0.545922 -1.946484
52.140000 -0.517620 -1.947926
52.160000 -0.492928 -1.951889
52.180000 -0.472092 -1.944495
52.200000 -0.443901 -1.950013
52.220000 -0.414320 -1.946498
52.240000 -0.386248 -1.952561
52.260000 -0.359235 -1.950587
52.280000 -0.332227 -1.947842
52.300000 -0.299677 -1.951329
52.320000 -0.268637 -1.946708
52.340000 -0.240125 -1.951147
52.360000 -0.212058 -1.949173
52.380000 -0.185048 -1.948934
52.400000 -0.159460 -1.953780
52.420000 -0.128945 -1.951483
52.440000 -0.098963 -1.946526
52.460000 -0.071434 -1.945812
52.480000 -0.046845 -1.951245
52.500000 -0.019782 -1.947310
52.520000 0.006762 -1.944719
52.540000 0.036810 -1.943389
52.560000 0.067754 -1.946750
52.580000 0.096862 -1.945560
52.600000 0.124855 -1.951021
52.620000 0.148562 -1.945868
52.640000 0.173542 -1.950629
52.660000 0.204827 -1.947380
52.680000 0.236430 -1.950685
52.700000 0.265198 -1.949271
52.720000 0.289796 -1.946666
52.740000 0.312976 -1.944103
52.760000 0.338322 -1.951413
52.780000 0.365032 -1.954970
52.800000 0.391097 -1.961187
52.820000 0.412602 -1.953640
52.840000 0.436853 -1.955432
52.860000 0.463929 -1.946680
52.880000 0.492996 -1.948682
52.900000 0.518313 -1.959941
52.920000 0.540226 -1.959605
52.940000 0.562216 -1.953262
52.960000 0.587543 -1.955810
52.980000 0.615180 -1.953023
53.000000 0.648308 -1.949579
53.020000 0.674210 -1.949509
53.040000 0.696598 -1.947380
53.060000 0.719057 -1.945196
53.080000 0.743717 -1.954746
53.100000 0.768994 -1.963946
53.120000 0.790735 -1.950349
53.140000 0.808098 -1.960907
53.160000 0.832128 -1.954760
53.180000 0.859473 -1.955040
53.200000 0.885915 -1.955418
53.220000 0.913562 -1.951287
53.240000 0.938527 -1.953668
53.260000 0.960264 -1.950013
53.280000 0.980095 -1.950951
53.300000 1.000839 -1.951455
53.320000 1.018685 -1.958541
53.340000 1.036712 -1.945742
53.360000 1.051936 -1.958387
53.380000 1.066861 -1.954578
53.400000 1.081880 -1.950643
53.420000 1.096516 -1.954844
53.440000 1.112966 -1.947044
53.460000 1.134387 -1.949467
53.480000 1.154980 -1.949145
53.500000 1.173441 -1.948346
53.520000 1.192111 -1.950895
53.540000 1.209006 -1.951203
53.560000 1.222790 -1.957715
53.580000 1.240016 -1.954970
53.600000 1.255308 -1.953542
53.620000 1.270520 -1.950181
53.640000 1.281451 -1.956356
53.660000 1.290954 -1.945546
53.680000 1.298929 -1.946064
53.700000 1.306089 -1.956076
53.720000 1.313567 -1.958891
53.740000 1.322739 -1.956678
53.760000 1.330926 -1.952505
53.780000 1.335269 -1.957196
53.800000 1.342926 -1.952183
53.820000 1.342183 -1.954662
53.840000 1.340001 -1.956062
53.860000 1.335075 -1.956132
53.880000 1.331821 -1.949257
53.900000 1.329244 -1.952015
53.920000 1.330222 -1.959325
53.940000 1.332755 -1.956230
53.960000 1.338848 -1.952981
53.980000 1.341551 -1.946792
54.000000 1.341600 -1.949271
54.020000 1.344394 -1.946876
54.040000 1.343923 -1.953696
54.060000 1.342875 -1.951175
54.080000 1.341479 -1.954550
54.100000 1.339226 -1.948416
54.120000 1.336675 -1.949159
54.140000 1.331721 -1.951581
54.160000 1.325141 -1.952351
54.180000 1.321731 -1.956580
54.200000 1.322249 -1.953724
54.220000 1.322309 -1.946694
54.240000 1.323226 -1.948066
54.260000 1.327440 -1.950573
54.280000 1.328092 -1.956818
54.300000 1.327474 -1.944845
54.320000 1.322750 -1.950811
54.340000 1.316680 -1.948220
54.360000 1.306604 -1.948948
54.380000 1.298836 -1.951777
54.400000 1.290032 -1.947478
54.420000 1.283443 -1.949243
54.440000 1.275431 -1.950391
54.460000 1.267365 -1.954816
54.480000 1.257316 -1.956482
54.500000 1.243932 -1.952365
54.520000 1.229023 -1.950615
54.540000 1.215807 -1.948878
54.560000 1.203273 -1.952617
54.580000 1.189784 -1.953346
54.600000 1.174063 -1.960501
54.620000 1.155751 -1.953135
54.640000 1.135992 -1.950279
54.660000 1.115991 -1.963246
54.680000 1.099993 -1.955712
54.700000 1.087109 -1.955208
54.720000 1.071810 -1.954228
54.740000 1.058400 -1.951315
54.760000 1.044686 -1.948318
54.780000 1.025308 -1.959549
54.800000 1.006984 -1.941093
54.820000 0.988901 -1.956300
54.840000 0.970886 -1.949775
54.860000 0.953542 -1.949327
54.880000 0.930976 -1.945994
54.900000 0.905160 -1.953023
54.920000 0.878155 -1.953500
54.940000 0.849204 -1.947758
54.960000 0.826095 -1.949649
54.980000 0.807183 -1.948150
55.000000 0.788767 -1.950685
55.020000 0.765714 -1.956384
55.040000 0.738868 -1.951665
55.060000 0.713471 -1.948878
55.080000 0.687141 -1.948794
55.100000 0.662637 -1.950839
55.120000 0.636897 -1.958037
55.140000 0.610079 -1.953192
55.160000 0.580708 -1.945112
55.180000 0.556803 -1.951819
55.200000 0.535301 -1.960935
55.220000 0.515043 -1.949607
55.240000 0.489793 -1.951805
55.260000 0.457040 -1.946204
55.280000 0.428708 -1.950391
55.300000 0.401385 -1.944831
55.320000 0.380713 -1.946806
55.340000 0.361083 -1.951189
55.360000 0.340605 -1.942241
55.380000 0.313299 -1.949915
55.400000 0.282705 -1.946022
55.420000 0.255326 -1.947156
55.440000 0.229941 -1.954844
55.460000 0.205822 -1.957799
55.480000 0.180925 -1.951231
55.500000 0.155670 -1.955138
55.520000 0.123764 -1.951959
55.540000 0.097196 -1.955040
55.560000 0.067988 -1.954802
55.580000 0.042541 -1.953248
55.600000 0.017263 -1.959143
55.620000 -0.005393 -1.960305
55.640000 -0.028451 -1.954788
55.660000 -0.057299 -1.950181
55.680000 -0.085607 -1.951665
55.700000 -0.110523 -1.944425
55.720000 -0.134716 -1.953906
55.740000 -0.157609 -1.956888
55.760000 -0.178425 -1.947926
55.780000 -0.201217 -1.948388
55.800000 -0.228204 -1.951805
55.820000 -0.255540 -1.949229
55.840000 -0.281329 -1.951315
55.860000 -0.303777 -1.945952
55.880000 -0.326636 -1.948094
55.900000 -0.351068 -1.949691
55.920000 -0.376390 -1.954032
55.940000 -0.401889 -1.946246
55.960000 -0.428642 -1.947170
55.980000 -0.453076 -1.950755
56.000000 -0.473875 -1.945252
56.020000 -0.499075 -1.953458
56.040000 -0.526605 -1.953990
56.060000 -0.550941 -1.941793
56.080000 -0.567231 -1.954284
56.100000 -0.584562 -1.956300
56.120000 -0.600932 -1.945798
56.140000 -0.621480 -1.955026
56.160000 -0.642435 -1.955978
56.180000 -0.667862 -1.964408
56.200000 -0.690512 -1.953444
56.220000 -0.710261 -1.950153
56.240000 -0.729889 -1.958401
56.260000 -0.752709 -1.954788
56.280000 -0.776216 -1.953065
56.300000 -0.798093 -1.956020
56.320000 -0.819181 -1.952673
56.340000 -0.836343 -1.949621
56.360000 -0.852530 -1.945238
56.380000 -0.868929 -1.953962
56.400000 -0.887602 -1.957252
56.420000 -0.902763 -1.947814
56.440000 -0.920054 -1.952869
56.460000 -0.935870 -1.944761
56.480000 -0.946027 -1.948542
56.500000 -0.959286 -1.952673
56.520000 -0.974392 -1.951805
56.540000 -0.988589 -1.955908
56.560000 -1.003883 -1.950237
56.580000 -1.018900 -1.954760
56.600000 -1.035430 -1.947940
56.620000 -1.047187 -1.953934
56.640000 -1.063197 -1.956160
56.660000 -1.079759 -1.952351
56.680000 -1.093681 -1.948906
56.700000 -1.106718 -1.951189
56.720000 -1.120971 -1.951021
56.740000 -1.134436 -1.947870
56.760000 -1.147762 -1.954620
56.780000 -1.154808 -1.951063
56.800000 -1.160420 -1.948598
56.820000 -1.169133 -1.957407
56.840000 -1.175152 -1.955978
56.860000 -1.181676 -1.955320
56.880000 -1.188403 -1.945630
56.900000 -1.194062 -1.955712
56.920000 -1.199084 -1.950531
56.940000 -1.205963 -1.959073
56.960000 -1.214063 -1.955250
56.980000 -1.221390 -1.947030
57.000000 -1.228310 -1.952967
57.020000 -1.233300 -1.953458
57.040000 -1.236113 -1.953808
57.060000 -1.237466 -1.950559
57.080000 -1.236933 -1.948556
57.100000 -1.236542 -1.952267
57.120000 -1.232529 -1.951987
57.140000 -1.226794 -1.951399
57.160000 -1.219169 -1.952925
57.180000 -1.209753 -1.952575
57.200000 -1.201290 -1.949551
57.220000 -1.196742 -1.957154
57.240000 -1.190346 -1.951133
57.260000 -1.184035 -1.949369
57.280000 -1.176782 -1.952323
57.300000 -1.171867 -1.961257
57.320000 -1.163458 -1.948836
57.340000 -1.156711 -1.955768
57.360000 -1.147469 -1.953388
57.380000 -1.133393 -1.952239
57.400000 -1.121307 -1.951763
57.420000 -1.108025 -1.958737
57.440000 -1.097786 -1.952155
57.460000 -1.083848 -1.953374
57.480000 -1.067968 -1.948780
57.500000 -1.053348 -1.944579
57.520000 -1.040586 -1.949901
57.540000 -1.021724 -1.943935
57.560000 -1.001711 -1.953178
57.580000 -0.984447 -1.950433
57.600000 -0.969500 -1.949004
57.620000 -0.952913 -1.952883
57.640000 -0.939740 -1.959983
57.660000 -0.928648 -1.950083
57.680000 -0.914003 -1.944509
57.700000 -0.896463 -1.946792
57.720000 -0.879504 -1.946792
57.740000 -0.861681 -1.945140
57.760000 -0.844347 -1.950237
57.780000 -0.828126 -1.952715
57.800000 -0.812639 -1.949187
57.820000 -0.792166 -1.950181
57.840000 -0.770466 -1.956496
57.860000 -0.747353 -1.949915
57.880000 -0.722641 -1.940785
57.900000 -0.701463 -1.945728
57.920000 -0.680899 -1.949327
57.940000 -0.663025 -1.951735
57.960000 -0.641741 -1.950979
57.980000 -0.620052 -1.946176
58.000000 -0.600201 -1.947226
58.020000 -0.582098 -1.942689
58.040000 -0.564286 -1.942549
58.060000 -0.549038 -1.950489
58.080000 -0.531302 -1.946624
58.100000 -0.506886 -1.943683
58.120000 -0.482580 -1.950069
58.140000 -0.459662 -1.949551
58.160000 -0.434660 -1.949607
58.180000 -0.412465 -1.945364
58.200000 -0.396778 -1.950349
58.220000 -0.372027 -1.951189
58.240000 -0.347400 -1.944902
58.260000 -0.321574 -1.948150
58.280000 -0.297712 -1.954494
58.300000 -0.276646 -1.948332
58.320000 -0.259238 -1.947408
58.340000 -0.233861 -1.947548
58.360000 -0.208476 -1.948780
58.380000 -0.185455 -1.948444
58.400000 -0.162533 -1.950867
58.420000 -0.140899 -1.947184
58.440000 -0.122939 -1.954466
58.460000 -0.100350 -1.953584
58.480000 -0.074097 -1.942535
58.500000 -0.046627 -1.947492
58.520000 -0.021268 -1.948990
58.540000 0.004890 -1.949201
58.560000 0.027410 -1.951483
58.580000 0.050008 -1.946946
58.600000 0.075685 -1.953710
58.620000 0.101769 -1.949649
58.640000 0.129756 -1.948332
58.660000 0.156171 -1.951301
58.680000 0.179326 -1.950657
58.700000 0.198827 -1.956762
58.720000 0.222990 -1.950125
58.740000 0.246596 -1.955208
58.760000 0.272830 -1.955558
58.780000 0.294687 -1.949341
58.800000 0.315721 -1.952729
58.820000 0.334808 -1.948164
58.840000 0.352518 -1.945350
58.860000 0.374462 -1.947380
58.880000 0.400761 -1.954704
58.900000 0.425365 -1.954312
58.920000 0.442450 -1.950657
58.940000 0.460457 -1.958779
58.960000 0.479498 -1.960207
58.980000 0.498792 -1.950951
59.000000 0.520461 -1.949439
59.020000 0.549499 -1.950923
59.040000 0.572406 -1.952813
59.060000 0.591820 -1.952043
59.080000 0.608723 -1.959381
59.100000 0.625306 -1.953682
59.120000 0.642473 -1.957967
59.140000 0.667073 -1.958373
59.160000 0.688541 -1.953654
59.180000 0.704865 -1.955642
59.200000 0.723639 -1.955642
59.220000 0.743723 -1.955264
59.240000 0.764000 -1.957365
59.260000 0.788820 -1.956160
59.280000 0.811914 -1.962042
59.300000 0.835268 -1.948892
59.320000 0.855775 -1.954718
59.340000 0.875245 -1.948850
59.360000 0.891982 -1.952603
59.380000 0.910063 -1.959227
59.400000 0.927946 -1.954088
59.420000 0.944378 -1.952463
59.440000 0.962777 -1.958219
59.460000 0.975679 -1.955600
59.480000 0.987622 -1.961201
59.500000 0.999779 -1.959927
59.520000 1.011828 -1.959801
59.540000 1.021802 -1.952463
59.560000 1.033362 -1.953009
59.580000 1.045578 -1.952785
59.600000 1.057343 -1.956132
59.620000 1.068209 -1.944958
59.640000 1.076495 -1.946204
59.660000 1.087984 -1.948178
59.680000 1.096869 -1.948892
59.700000 1.102304 -1.942479
59.720000 1.108869 -1.942101
59.740000 1.119121 -1.941569
59.760000 1.127490 -1.958905
59.780000 1.135318 -1.960361
59.800000 1.143268 -1.952855
59.820000 1.152950 -1.952729
59.840000 1.158683 -1.952561
59.860000 1.163135 -1.949817
59.880000 1.168615 -1.952337
59.900000 1.173305 -1.956398
59.920000 1.178050 -1.947842
59.940000 1.186994 -1.956580
59.960000 1.193133 -1.952715
59.980000 1.199231 -1.956356
60.000000 1.207032 -1.956706
60.020000 1.210663 -1.957981
60.040000 1.215022 -1.951091
60.060000 1.218659 -1.942703
60.080000 1.218011 -1.949019
60.100000 1.213223 -1.952673
60.120000 1.208561 -1.954956
60.140000 1.201455 -1.945056
60.160000 1.192988 -1.952141
60.180000 1.186945 -1.949481
60.200000 1.180495 -1.946484
60.220000 1.175884 -1.956370
60.240000 1.172345 -1.951889
60.260000 1.166282 -1.944271
60.280000 1.161724 -1.942227
60.300000 1.158097 -1.944439
60.320000 1.149479 -1.950629
60.340000 1.142047 -1.948920
60.360000 1.133301 -1.949957
60.380000 1.122499 -1.947632
60.400000 1.110887 -1.954550
60.420000 1.101209 -1.945084
60.440000 1.092530 -1.955866
60.460000 1.086241 -1.947632
60.480000 1.076510 -1.949621
60.500000 1.064541 -1.946820
60.520000 1.053903 -1.950573
60.540000 1.042850 -1.942647
60.560000 1.028278 -1.950685
60.580000 1.017248 -1.954592
60.600000 1.007167 -1.952911
60.620000 0.997852 -1.950419
60.640000 0.985120 -1.957771
60.660000 0.973799 -1.950727
60.680000 0.960982 -1.949761
60.700000 0.946413 -1.953206
60.720000 0.932556 -1.957140
60.740000 0.919025 -1.952771
60.760000 0.900951 -1.960333
60.780000 0.882496 -1.954270
60.800000 0.865204 -1.950545
60.820000 0.848324 -1.956818
60.840000 0.829814 -1.951147
60.860000 0.809438 -1.960557
60.880000 0.783866 -1.954004
60.900000 0.760300 -1.962168
60.920000 0.739873 -1.951651
60.940000 0.719569 -1.957351
60.960000 0.702003 -1.951343
60.980000 0.688431 -1.957701
61.000000 0.673483 -1.956818
61.020000 0.653828 -1.945546
61.040000 0.630382 -1.947646
61.060000 0.610220 -1.948892
61.080000 0.592296 -1.953794
61.100000 0.573188 -1.948962
61.120000 0.550802 -1.948710
61.140000 0.532028 -1.950853
61.160000 0.506497 -1.948052
61.180000 0.481945 -1.950027
61.200000 0.463573 -1.952575
61.220000 0.449207 -1.953612
61.240000 0.435426 -1.949299
61.260000 0.416720 -1.955054
61.280000 0.396159 -1.957757
61.300000 0.369695 -1.958065
61.320000 0.347333 -1.956454
61.340000 0.326932 -1.951217
61.360000 0.308412 -1.960151
61.380000 0.294873 -1.951441
61.400000 0.280445 -1.953430
61.420000 0.260098 -1.960753
61.440000 0.232860 -1.954494
61.460000 0.212842 -1.948696
61.480000 0.192502 -1.948094
61.500000 0.173207 -1.946820
61.520000 0.154002 -1.951287
61.540000 0.134981 -1.952673
61.560000 0.109756 -1.946834
61.580000 0.087899 -1.946596
61.600000 0.065848 -1.955180
61.620000 0.041775 -1.953612
61.640000 0.016915 -1.956146
61.660000 -0.004947 -1.955558
61.680000 -0.024437 -1.948108
61.700000 -0.043803 -1.958681
61.720000 -0.064282 -1.950055
61.740000 -0.086617 -1.950265
61.760000 -0.110263 -1.947198
61.780000 -0.133184 -1.951959
61.800000 -0.158934 -1.949159
61.820000 -0.181525 -1.952351
61.840000 -0.203962 -1.957379
61.860000 -0.226216 -1.951665
61.880000 -0.248255 -1.953906
61.900000 -0.270051 -1.962714
61.920000 -0.291572 -1.946386
61.940000 -0.312790 -1.951749
61.960000 -0.333674 -1.964002
61.980000 -0.354194 -1.953234
62.000000 -0.374320 -1.950489
62.020000 -0.394022 -1.947492
62.040000 -0.413270 -1.953948
62.060000 -0.432034 -1.951609
62.080000 -0.450285 -1.943921
62.100000 -0.467991 -1.947058
62.120000 -0.485123 -1.951399
62.140000 -0.501651 -1.948682
62.160000 -0.517546 -1.948766
62.180000 -0.532776 -1.956132
62.200000 -0.547312 -1.952351