% Original filename: Decay Test Spring 0Deg0005.mat
0 Deg Decay Spring Run 6 2018-04-12
Time(s) Response(deg) LoadCell(N)
0.000000 -3.797993 -1.976633
0.020000 -3.796026 -1.978804
0.040000 -3.794118 -1.979392
0.060000 -3.792269 -1.981002
0.080000 -3.790478 -1.981576
0.100000 -3.788747 -1.974323
0.120000 -3.787074 -1.976899
0.140000 -3.785462 -1.981156
0.160000 -3.783909 -1.976143
0.180000 -3.782415 -1.980610
0.200000 -3.780982 -1.983201
0.220000 -3.779609 -1.980652
0.240000 -3.778296 -1.981016
0.260000 -3.777044 -1.976437
0.280000 -3.775852 -1.980456
0.300000 -3.774722 -1.975513
0.320000 -3.773652 -1.977347
0.340000 -3.772644 -1.970780
0.360000 -3.771697 -1.989124
0.380000 -3.770811 -1.983649
0.400000 -3.769988 -1.972558
0.420000 -3.770043 -1.982557
0.440000 -3.766381 -1.973146
0.460000 -3.765272 -1.980876
0.480000 -3.764360 -1.983187
0.500000 -3.766411 -1.984321
0.520000 -3.768475 -1.975471
0.540000 -3.768346 -1.980190
0.560000 -3.769718 -1.986996
0.580000 -3.767275 -1.978664
0.600000 -3.769808 -1.979406
0.620000 -3.769626 -1.973314
0.640000 -3.771337 -1.977165
0.660000 -3.771431 -1.976885
0.680000 -3.771692 -1.981548
0.700000 -3.768234 -1.981730
0.720000 -3.766150 -1.975023
0.740000 -3.762303 -1.983579
0.760000 -3.762478 -1.980960
0.780000 -3.763639 -1.978566
0.800000 -3.760498 -1.979700
0.820000 -3.761081 -1.980778
0.840000 -3.760168 -1.976535
0.860000 -3.758968 -1.982809
0.880000 -3.761116 -1.984111
0.900000 -3.762150 -1.978930
0.920000 -3.762359 -1.984251
0.940000 -3.762379 -1.981240
0.960000 -3.761576 -1.979700
0.980000 -3.762789 -1.985105
1.000000 -3.765847 -1.981170
1.020000 -3.766937 -1.982991
1.040000 -3.768170 -1.984797
1.060000 -3.769562 -1.984629
1.080000 -3.769003 -1.985371
1.100000 -3.768927 -1.990721
1.120000 -3.767093 -1.983481
1.140000 -3.767436 -1.982431
1.160000 -3.767445 -1.982823
1.180000 -3.769213 -1.986702
1.200000 -3.771172 -1.976605
1.220000 -3.772555 -1.971060
1.240000 -3.771879 -1.978356
1.260000 -3.774517 -1.979952
1.280000 -3.777648 -1.972306
1.300000 -3.778722 -1.974575
1.320000 -3.789714 -1.980344
1.340000 -3.800797 -1.977627
1.360000 -3.814902 -1.979322
1.380000 -3.825158 -1.979546
1.400000 -3.838773 -1.981240
1.420000 -3.846816 -1.972838
1.440000 -3.854586 -1.983565
1.460000 -3.854849 -1.977361
1.480000 -3.853198 -1.981408
1.500000 -3.851102 -1.984671
1.520000 -3.847016 -1.986309
1.540000 -3.844969 -1.977011
1.560000 -3.837547 -1.975555
1.580000 -3.822587 -1.978412
1.600000 -3.798289 -1.966439
1.620000 -3.766104 -1.976535
1.640000 -3.724015 -1.979504
1.660000 -3.673498 -1.974659
1.680000 -3.613051 -1.973314
1.700000 -3.540743 -1.973958
1.720000 -3.463988 -1.978047
1.740000 -3.377102 -1.976941
1.760000 -3.280978 -1.975849
1.780000 -3.172696 -1.968651
1.800000 -3.053746 -1.971256
1.820000 -2.924447 -1.979868
1.840000 -2.785001 -1.972054
1.860000 -2.639725 -1.975135
1.880000 -2.486962 -1.979490
1.900000 -2.330717 -1.978748
1.920000 -2.173695 -1.974197
1.940000 -2.017307 -1.977991
1.960000 -1.857052 -1.984251
1.980000 -1.695887 -1.984937
2.000000 -1.533282 -1.970766
2.020000 -1.365458 -1.978538
2.040000 -1.201364 -1.978160
2.060000 -1.039758 -1.981422
2.080000 -0.882802 -1.983187
2.100000 -0.733931 -1.980274
2.120000 -0.595815 -1.974351
2.140000 -0.453444 -1.982459
2.160000 -0.318409 -1.979154
2.180000 -0.181957 -1.979966
2.200000 -0.047489 -1.979350
2.220000 0.081275 -1.982683
2.240000 0.206118 -1.981772
2.260000 0.328181 -1.978748
2.280000 0.442084 -1.982052
2.300000 0.548550 -1.974323
2.320000 0.651658 -1.977655
2.340000 0.749535 -1.975177
2.360000 0.852280 -1.980596
2.380000 0.951674 -1.982108
2.400000 1.052700 -1.985245
2.420000 1.148914 -1.978762
2.440000 1.242224 -1.969323
2.460000 1.335168 -1.973790
2.480000 1.424191 -1.971536
2.500000 1.500741 -1.975541
2.520000 1.573488 -1.979588
2.540000 1.648353 -1.982487
2.560000 1.714337 -1.979434
2.580000 1.779832 -1.976367
2.600000 1.840660 -1.969351
2.620000 1.891020 -1.982963
2.640000 1.937705 -1.970962
2.660000 1.973057 -1.974449
2.680000 1.998170 -1.981520
2.700000 2.012129 -1.977067
2.720000 2.014553 -1.975597
2.740000 2.010669 -1.983607
2.760000 2.005499 -1.977011
2.780000 1.994607 -1.976955
2.800000 1.979189 -1.984027
2.820000 1.956331 -1.981688
2.840000 1.915919 -1.979938
2.860000 1.876753 -1.982543
2.880000 1.822884 -1.978510
2.900000 1.762113 -1.979014
2.920000 1.698926 -1.973370
2.940000 1.627688 -1.977067
2.960000 1.557027 -1.986211
2.980000 1.485946 -1.980778
3.000000 1.406897 -1.981758
3.020000 1.325518 -1.982571
3.040000 1.240462 -1.982599
3.060000 1.155275 -1.978300
3.080000 1.059901 -1.981716
3.100000 0.963787 -1.979616
3.120000 0.862762 -1.983887
3.140000 0.765245 -1.989474
3.160000 0.666238 -1.991953
3.180000 0.570615 -1.981464
3.200000 0.478376 -1.979812
3.220000 0.379117 -1.975065
3.240000 0.283865 -1.983747
3.260000 0.185252 -1.983495
3.280000 0.079524 -1.974393
3.300000 -0.027991 -1.990258
3.320000 -0.126311 -1.977683
3.340000 -0.219581 -1.980974
3.360000 -0.314773 -1.980414
3.380000 -0.401512 -1.982150
3.400000 -0.488619 -1.981604
3.420000 -0.574325 -1.984979
3.440000 -0.655814 -1.973650
3.460000 -0.741428 -1.981338
3.480000 -0.826122 -1.979406
3.500000 -0.907083 -1.977361
3.520000 -0.986148 -1.979028
3.540000 -1.057548 -1.971942
3.560000 -1.120827 -1.972082
3.580000 -1.180837 -1.978328
3.600000 -1.239404 -1.971634
3.620000 -1.297316 -1.981562
3.640000 -1.344683 -1.981478
3.660000 -1.383667 -1.981926
3.680000 -1.428258 -1.990847
3.700000 -1.459392 -1.971984
3.720000 -1.489021 -1.979714
3.740000 -1.506962 -1.985287
3.760000 -1.518223 -1.982543
3.780000 -1.530631 -1.984153
3.800000 -1.535298 -1.985259
3.820000 -1.533679 -1.985385
3.840000 -1.530066 -1.982823
3.860000 -1.520051 -1.979042
3.880000 -1.508205 -1.985287
3.900000 -1.491396 -1.976983
3.920000 -1.470116 -1.984601
3.940000 -1.439480 -1.981100
3.960000 -1.401140 -1.981968
3.980000 -1.359192 -1.980918
4.000000 -1.313494 -1.974477
4.020000 -1.275123 -1.986674
4.040000 -1.223756 -1.984195
4.060000 -1.175324 -1.986478
4.080000 -1.118024 -1.981884
4.100000 -1.056377 -1.983327
4.120000 -0.986538 -1.977207
4.140000 -0.918937 -1.983845
4.160000 -0.845287 -1.985021
4.180000 -0.772949 -1.984741
4.200000 -0.700096 -1.986982
4.220000 -0.624122 -1.981562
4.240000 -0.553088 -1.982305
4.260000 -0.480117 -1.974897
4.280000 -0.406627 -1.978342
4.300000 -0.332715 -1.979364
4.320000 -0.256976 -1.979546
4.340000 -0.179643 -1.986295
4.360000 -0.102639 -1.982333
4.380000 -0.029624 -1.986071
4.400000 0.044884 -1.978005
4.420000 0.118961 -1.972880
4.440000 0.195032 -1.986141
4.460000 0.264216 -1.980078
4.480000 0.333444 -1.983061
4.500000 0.402461 -1.981940
4.520000 0.465535 -1.983691
4.540000 0.532772 -1.990454
4.560000 0.590193 -1.987066
4.580000 0.645979 -1.984769
4.600000 0.697950 -1.986954
4.620000 0.746348 -1.979812
4.640000 0.795328 -1.981814
4.660000 0.838022 -1.979532
4.680000 0.875782 -1.986646
4.700000 0.909704 -1.985679
4.720000 0.943270 -1.980512
4.740000 0.973386 -1.980834
4.760000 1.002342 -1.983089
4.780000 1.023178 -1.979924
4.800000 1.043581 -1.984027
4.820000 1.052932 -1.983257
4.840000 1.069641 -1.978608
4.860000 1.075063 -1.979308
4.880000 1.080846 -1.987164
4.900000 1.084287 -1.987738
4.920000 1.080362 -1.984349
4.940000 1.073495 -1.981800
4.960000 1.068325 -1.983327
4.980000 1.049232 -1.982094
5.000000 1.036062 -1.976227
5.020000 1.012217 -1.988620
5.040000 0.987361 -1.971704
5.060000 0.962067 -1.980904
5.080000 0.930361 -1.983103
5.100000 0.901661 -1.975205
5.120000 0.868243 -1.980764
5.140000 0.830028 -1.984265
5.160000 0.793059 -1.978818
5.180000 0.751875 -1.980078
5.200000 0.710361 -1.981268
5.220000 0.663765 -1.980456
5.240000 0.616760 -1.982935
5.260000 0.563942 -1.983817
5.280000 0.511588 -1.982108
5.300000 0.455363 -1.981982
5.320000 0.402633 -1.984209
5.340000 0.348523 -1.982935
5.360000 0.288498 -1.981604
5.380000 0.227677 -1.989950
5.400000 0.167598 -1.976969
5.420000 0.112831 -1.993647
5.440000 0.058569 -1.995174
5.460000 -0.001458 -1.986239
5.480000 -0.057038 -1.981450
5.500000 -0.110418 -1.983677
5.520000 -0.163521 -1.984853
5.540000 -0.213062 -1.995622
5.560000 -0.263243 -1.989600
5.580000 -0.313172 -1.985805
5.600000 -0.363752 -1.992765
5.620000 -0.411258 -1.980778
5.640000 -0.457090 -1.987836
5.660000 -0.501292 -1.987696
5.680000 -0.542167 -1.983579
5.700000 -0.579202 -1.982305
5.720000 -0.619048 -1.977305
5.740000 -0.649760 -1.983705
5.760000 -0.678783 -1.984069
5.780000 -0.703485 -1.981002
5.800000 -0.721588 -1.985721
5.820000 -0.743078 -1.983649
5.840000 -0.756788 -1.984139
5.860000 -0.768935 -1.986029
5.880000 -0.777717 -1.989600
5.900000 -0.780741 -1.986660
5.920000 -0.789146 -1.991225
5.940000 -0.791212 -1.984083
5.960000 -0.789819 -1.982347
5.980000 -0.789499 -1.985259
6.000000 -0.784411 -1.983873
6.020000 -0.780732 -1.985889
6.040000 -0.771642 -1.978342
6.060000 -0.760179 -1.978972
6.080000 -0.746503 -1.978314
6.100000 -0.733940 -1.980456
6.120000 -0.712353 -1.984419
6.140000 -0.693049 -1.981912
6.160000 -0.678937 -1.981912
6.180000 -0.652968 -1.976535
6.200000 -0.622042 -1.974365
6.220000 -0.592152 -1.986197
6.240000 -0.563177 -1.984391
6.260000 -0.526496 -1.982150
6.280000 -0.487080 -1.976507
6.300000 -0.447740 -1.983467
6.320000 -0.413541 -1.979042
6.340000 -0.379130 -1.976787
6.360000 -0.337846 -1.987472
6.380000 -0.294449 -1.986113
6.400000 -0.251408 -1.988676
6.420000 -0.210723 -1.984881
6.440000 -0.171354 -1.986996
6.460000 -0.130187 -1.988186
6.480000 -0.088732 -1.976101
6.500000 -0.046212 -1.989572
6.520000 -0.005218 -1.987472
6.540000 0.035570 -1.982248
6.560000 0.079001 -1.978496
6.580000 0.119193 -1.978328
6.600000 0.157419 -1.981926
6.620000 0.193367 -1.985805
6.640000 0.230719 -1.989012
6.660000 0.268205 -1.978188
6.680000 0.303469 -1.985455
6.700000 0.336134 -1.989614
6.720000 0.367457 -1.987850
6.740000 0.399297 -1.982977
6.760000 0.426837 -1.976157
6.780000 0.453635 -1.978454
6.800000 0.478801 -1.988844
6.820000 0.500046 -1.986407
6.840000 0.521520 -1.979504
6.860000 0.535408 -1.985133
6.880000 0.540707 -1.977403
6.900000 0.549972 -1.988172
6.920000 0.560337 -1.984433
6.940000 0.566711 -1.986141
6.960000 0.572297 -1.988760
6.980000 0.582831 -1.982164
7.000000 0.579367 -1.990833
7.020000 0.575209 -1.978846
7.040000 0.576239 -1.979812
7.060000 0.577984 -1.971942
7.080000 0.568678 -1.989670
7.100000 0.555513 -1.985539
7.120000 0.541746 -1.984419
7.140000 0.535712 -1.983187
7.160000 0.531762 -1.987500
7.180000 0.516776 -1.984545
7.200000 0.497078 -1.981198
7.220000 0.475405 -1.986127
7.240000 0.455035 -1.986814
7.260000 0.437964 -1.991421
7.280000 0.416945 -1.985595
7.300000 0.391401 -1.984055
7.320000 0.364361 -1.986085
7.340000 0.337043 -1.987850
7.360000 0.308082 -1.988746
7.380000 0.279382 -1.985861
7.400000 0.253450 -1.988998
7.420000 0.226987 -1.982206
7.440000 0.200387 -1.982697
7.460000 0.171065 -1.978874
7.480000 0.146543 -1.989922
7.500000 0.118981 -1.982150
7.520000 0.093090 -1.984825
7.540000 0.066206 -1.982865
7.560000 0.039319 -1.980764
7.580000 0.012546 -1.983285
7.600000 -0.015406 -1.987360
7.620000 -0.044520 -1.981968
7.640000 -0.072990 -1.981002
7.660000 -0.102560 -1.985847
7.680000 -0.128890 -1.978678
7.700000 -0.149147 -1.983369
7.720000 -0.171033 -1.985441
7.740000 -0.190210 -1.987948
7.760000 -0.212080 -1.986337
7.780000 -0.234985 -1.984167
7.800000 -0.257216 -1.976535
7.820000 -0.269260 -1.985385
7.840000 -0.281790 -1.979392
7.860000 -0.296322 -1.983537
7.880000 -0.310031 -1.987262
7.900000 -0.321039 -1.988228
7.920000 -0.327862 -1.982389
7.940000 -0.332979 -1.982879
7.960000 -0.338864 -1.985105
7.980000 -0.342431 -1.982991
8.000000 -0.343071 -1.986071
8.020000 -0.341470 -1.989334
8.040000 -0.336992 -1.985427
8.060000 -0.332592 -1.978174
8.080000 -0.334878 -1.979126
8.100000 -0.334513 -1.986884
8.120000 -0.333470 -1.985525
8.140000 -0.328538 -1.986884
8.160000 -0.318945 -1.988494
8.180000 -0.306013 -1.991897
8.200000 -0.289840 -1.982333
8.220000 -0.276811 -1.985329
8.240000 -0.265081 -1.983341
8.260000 -0.252876 -1.988046
8.280000 -0.239290 -1.990959
8.300000 -0.225786 -1.978272
8.320000 -0.211762 -1.976297
8.340000 -0.197184 -1.986772
8.360000 -0.181998 -1.981786
8.380000 -0.164162 -1.989782
8.400000 -0.144767 -1.996602
8.420000 -0.124394 -1.984181
8.440000 -0.100823 -1.982262
8.460000 -0.079746 -1.987640
8.480000 -0.056802 -1.985441
8.500000 -0.036239 -1.991141
8.520000 -0.019002 -1.982178
8.540000 -0.000251 -1.979910
8.560000 0.015910 -1.984363
8.580000 0.029317 -1.981114
8.600000 0.043998 -1.971676
8.620000 0.057023 -1.980022
8.640000 0.068094 -1.974925
8.660000 0.078908 -1.983075
8.680000 0.087756 -1.977935
8.700000 0.098332 -1.982543
8.720000 0.107401 -1.985399
8.740000 0.119051 -1.982991
8.760000 0.128913 -1.980022
8.780000 0.137637 -1.981086
8.800000 0.143277 -1.985133
8.820000 0.149417 -1.984769
8.840000 0.152965 -1.983523
8.860000 0.155770 -1.978328
8.880000 0.159053 -1.982276
8.900000 0.163058 -1.987626
8.920000 0.165161 -1.981380
8.940000 0.169658 -1.970906
8.960000 0.168554 -1.981492
8.980000 0.165508 -1.976339
9.000000 0.163162 -1.975793
9.020000 0.156766 -1.989278
9.040000 0.148181 -1.979364
9.060000 0.140085 -1.981758
9.080000 0.137498 -1.979336
9.100000 0.135515 -1.981128
9.120000 0.133505 -1.980848
9.140000 0.136609 -1.977711
9.160000 0.142600 -1.973342
9.180000 0.151140 -1.981492
9.200000 0.159016 -1.981898
9.220000 0.164759 -1.976675
9.240000 0.170754 -1.968385
9.260000 0.173976 -1.981352
9.280000 0.174825 -1.978033
9.300000 0.174550 -1.985063
9.320000 0.172987 -1.982192
9.340000 0.167941 -1.988130
9.360000 0.161888 -1.979014
9.380000 0.154484 -1.990412
9.400000 0.149827 -1.987038
9.420000 0.143243 -1.984643
9.440000 0.137836 -1.981660
9.460000 0.131198 -1.985637
9.480000 0.123914 -1.981156
9.500000 0.116003 -1.981380
9.520000 0.105426 -1.976549
9.540000 0.096976 -1.981968
9.560000 0.088581 -1.982150
9.580000 0.081093 -1.978720
9.600000 0.075085 -1.976507
9.620000 0.066760 -1.984979
9.640000 0.059864 -1.978650
9.660000 0.054376 -1.977557
9.680000 0.049713 -1.982178
9.700000 0.042856 -1.977137
9.720000 0.032020 -1.985329
9.740000 0.023620 -1.984447
9.760000 0.013939 -1.977039
9.780000 0.008152 -1.985945
9.800000 0.004106 -1.982164
9.820000 0.000349 -1.983117
9.840000 -0.004056 -1.979770
9.860000 -0.001492 -1.979098
9.880000 0.002269 -1.979756
9.900000 0.002033 -1.981198
9.920000 0.007918 -1.978678
9.940000 0.016788 -1.964800
9.960000 0.024861 -1.975821
9.980000 0.031984 -1.981464
10.000000 0.038164 -1.988648
10.020000 0.043164 -1.977305
10.040000 0.047604 -1.975387
10.060000 0.051411 -1.985637
10.080000 0.053393 -1.983621
10.100000 0.053671 -1.979476
10.120000 0.051074 -1.987374
10.140000 0.045835 -1.980666
10.160000 0.046995 -1.982795
10.180000 0.047248 -1.983831
10.200000 0.046599 -1.979742
10.220000 0.044630 -1.984363
10.240000 0.043021 -1.981450
10.260000 0.039161 -1.977417
10.280000 0.034499 -1.977095
10.300000 0.028386 -1.980876
10.320000 0.023016 -1.974085
10.340000 0.018012 -1.973048
10.360000 0.014462 -1.984139
10.380000 0.007903 -1.981996
10.400000 0.002131 -1.984909
10.420000 -0.002653 -1.983243
10.440000 -0.005168 -1.982234
10.460000 -0.007659 -1.984811
10.480000 -0.011284 -1.983355
10.500000 -0.017038 -1.980022
10.520000 -0.022962 -1.976619
10.540000 -0.023472 -1.981758
10.560000 -0.024686 -1.987402
10.580000 -0.022597 -1.983089
10.600000 -0.020137 -1.985357
10.620000 -0.016611 -1.982108
10.640000 -0.014288 -1.983845
10.660000 -0.008277 -1.986127
10.680000 -0.003436 -1.986057
10.700000 0.003975 -1.986071
10.720000 0.014512 -1.990693
10.740000 0.024307 -1.988284
10.760000 0.032786 -1.990973
10.780000 0.040873 -1.987220
10.800000 0.049595 -1.988088
10.820000 0.057267 -1.983495
10.840000 0.064527 -1.986828
10.860000 0.070556 -1.976549
10.880000 0.076886 -1.981562
10.900000 0.080899 -1.976521
10.920000 0.086666 -1.983327
10.940000 0.091244 -1.977235
10.960000 0.098030 -1.985203
10.980000 0.101069 -1.980106
11.000000 0.102534 -1.977067
11.020000 0.103508 -1.987318
11.040000 0.103854 -1.983733
11.060000 0.101056 -1.984461
11.080000 0.095956 -1.978454
11.100000 0.092899 -1.976969
11.120000 0.089329 -1.978089
11.140000 0.086345 -1.982991
11.160000 0.081913 -1.977445
11.180000 0.077579 -1.973020
11.200000 0.072568 -1.972908
11.220000 0.068821 -1.974799
11.240000 0.063651 -1.983915
11.260000 0.058729 -1.984279
11.280000 0.052731 -1.990805
11.300000 0.047623 -2.002875
11.320000 0.044494 -1.989754
11.340000 0.042682 -1.989040
11.360000 0.040057 -1.984825
11.380000 0.038462 -1.982333
11.400000 0.033680 -1.986576
11.420000 0.029382 -1.982080
11.440000 0.025578 -1.979742
11.460000 0.022337 -1.983313
11.480000 0.018944 -1.986478
11.500000 0.016381 -1.983845
11.520000 0.013155 -1.983131
11.540000 0.010482 -1.980694
11.560000 0.008961 -1.982921
11.580000 0.004496 -1.980428
11.600000 0.003273 -1.983159
11.620000 -0.002141 -1.977627
11.640000 -0.008287 -1.977291
11.660000 -0.014423 -1.977417
11.680000 -0.018946 -1.980372
11.700000 -0.023552 -1.978496
11.720000 -0.025894 -1.982515
11.740000 -0.027535 -1.980750
11.760000 -0.028997 -1.980568
11.780000 -0.030876 -1.980610
11.800000 -0.030841 -1.978440
11.820000 -0.031092 -1.981268
11.840000 -0.032680 -1.981506
11.860000 -0.032563 -1.983173
11.880000 -0.033093 -1.983453
11.900000 -0.031659 -1.985385
11.920000 -0.031957 -1.980764
11.940000 -0.034096 -1.982515
11.960000 -0.037011 -1.980638
11.980000 -0.039170 -1.980176
12.000000 -0.040218 -1.985665
12.020000 -0.040716 -1.980218
12.040000 -0.041763 -1.977851
12.060000 -0.042630 -1.984979
12.080000 -0.043998 -1.986169
12.100000 -0.044820 -1.984629
12.120000 -0.044301 -1.981310
12.140000 -0.045906 -1.983971
12.160000 -0.047140 -1.988480
12.180000 -0.047979 -1.981170
12.200000 -0.048126 -1.980512
12.220000 -0.048702 -1.983929
12.240000 -0.048307 -1.979140
12.260000 -0.047036 -1.979770
12.280000 -0.043993 -1.980232
12.300000 -0.041312 -1.982683
12.320000 -0.039156 -1.983369
12.340000 -0.036231 -1.983355
12.360000 -0.035685 -1.984181
12.380000 -0.036425 -1.980806
12.400000 -0.034395 -1.986814
12.420000 -0.035214 -1.979728
12.440000 -0.034077 -1.989488
12.460000 -0.031658 -1.978888
12.480000 -0.028377 -1.984951
12.500000 -0.023585 -1.984265
12.520000 -0.019545 -1.980190
12.540000 -0.015455 -1.975093
12.560000 -0.010687 -1.984419
12.580000 -0.006583 -1.982038
12.600000 -0.003036 -1.975821
12.620000 -0.001567 -1.979924
12.640000 -0.001416 -1.983957
12.660000 0.000604 -1.979280
12.680000 0.000466 -1.980008
12.700000 0.001592 -1.983327
12.720000 0.000647 -1.985301
12.740000 0.000121 -1.978776
12.760000 0.001854 -1.980414
12.780000 0.004137 -1.981562
12.800000 0.006100 -1.978874
12.820000 0.006595 -1.977739
12.840000 0.007998 -1.984181
12.860000 0.009253 -1.985749
12.880000 0.008402 -1.977487
12.900000 0.009469 -1.978496
12.920000 0.009694 -1.984937
12.940000 0.010311 -1.982781
12.960000 0.012577 -1.980274
12.980000 0.014560 -1.986982
13.000000 0.014597 -1.979056
13.020000 0.014268 -1.982361
13.040000 0.015691 -1.976115
13.060000 0.018187 -1.983397
13.080000 0.017835 -1.984167
13.100000 0.016934 -1.978888
13.120000 0.015279 -1.981548
13.140000 0.013142 -1.981478
13.160000 0.007350 -1.977935
13.180000 0.004498 -1.982991
13.200000 0.000778 -1.977963
13.220000 -0.003566 -1.980134
13.240000 -0.008465 -1.980484
13.260000 -0.013282 -1.980330
13.280000 -0.017005 -1.981366
13.300000 -0.021086 -1.984251
13.320000 -0.026239 -1.973874
13.340000 -0.029448 -1.983089
13.360000 -0.034227 -1.984209
13.380000 -0.039369 -1.977333
13.400000 -0.043212 -1.971970
13.420000 -0.045753 -1.984111
13.440000 -0.049566 -1.980596
13.460000 -0.051568 -1.984713
13.480000 -0.054215 -1.983257
13.500000 -0.056530 -1.980652
13.520000 -0.059146 -1.982417
13.540000 -0.059017 -1.985945
13.560000 -0.059471 -1.989250
13.580000 -0.059977 -1.986520
13.600000 -0.059659 -1.985861
13.620000 -0.058495 -1.977669
13.640000 -0.057800 -1.984811
13.660000 -0.057425 -1.978916
13.680000 -0.056268 -1.981184
13.700000 -0.051438 -1.984097
13.720000 -0.048877 -1.984209
13.740000 -0.047121 -1.987976
13.760000 -0.047542 -1.987122
13.780000 -0.048279 -1.984069
13.800000 -0.047347 -1.970066
13.820000 -0.045733 -1.985903
13.840000 -0.045357 -1.997750
13.860000 -0.044914 -1.984251
13.880000 -0.045377 -1.976717
13.900000 -0.046530 -1.975905
13.920000 -0.048617 -1.978860
13.940000 -0.050603 -1.977641
13.960000 -0.051402 -1.985063
13.980000 -0.050940 -1.983467
14.000000 -0.050322 -1.980820
14.020000 -0.049524 -1.988256
14.040000 -0.049816 -1.988424
14.060000 -0.049096 -1.978272
14.080000 -0.047262 -1.985987
14.100000 -0.046989 -1.978230
14.120000 -0.047305 -1.983691
14.140000 -0.045332 -1.982094
14.160000 -0.043149 -1.977949
14.180000 -0.040766 -1.979784
14.200000 -0.038195 -1.980036
14.220000 -0.035447 -1.978622
14.240000 -0.032534 -1.987206
14.260000 -0.029465 -1.980778
14.280000 -0.026254 -1.974519
14.300000 -0.022910 -1.985427
14.320000 -0.019445 -1.979896
14.340000 -0.015870 -1.978580
14.360000 -0.012197 -1.986379
14.380000 -0.008436 -1.980680
14.400000 -0.004599 -1.977865
14.420000 -0.000697 -1.986029
14.440000 0.003259 -1.980218
14.460000 0.007258 -1.973034
14.480000 0.011288 -1.982991
14.500000 0.015338 -1.976521
14.520000 0.019398 -1.976521