/***********************************************************
* Ocean Resources and Renewable Energy Laboratory
* Version: v1.0 (Released on May 1st, 2021)
* Programmed by: Jessica Nguyen (Email: nvnguyen@umass.edu)
*----------------------------------------------------------
* Project Name:	NREL_VGOSWEC_freedecay_VGM45
* Project Lead:	JD
* Labview Operator:	JD
* Comments:	VGOSWEC scale model with 5.25" diameter cylindrical foundation and three pairs of opposing torsional springs. Model centered in window 2,  193.5 in from the start of the tank; probe positions: probe 1 (staff, front) - 134 in; probe 2 (sonic, alongside) - 193.5 in; probe 3 (staff, behind) - 274.5 in ; probe 4 (sonic, behind) - 332.5 in. Data aquisition specifications: wave start time: 0 s; wave end time: 40 s; delta t: 0.05; ramp time: 3 s; end time delay: 20 s; sampling rate: 2 ms. Kistler force cal factor: 3.33 V/N (X), 3.33 V/N (Y), 3.33 V/N (Z); Kistler moment cal factor: 3.33 V/Nm (Y), 3.33  V Nm (X,Z). Naming convention: T(period)_A(actuator amp)_B(beach distance)_VGM(variable geometry module angle).
* Date and Time:	Thu 17 Jun 2021 11:08:53 AM EDT
***********************************************************/

"Time(s)"	"WP1(m)"	"WP2(m)"	"WP3(m)"	"WP4(m)"	"Roll(deg)"	"Pitch(deg)"	"ForceX(N)"	"ForceY(N)"	"ForceZ(N)"	"MomentX"	"MomentY"	"MomentZ"	
0.00000	-2.04004	-1.96297	-0.47417	-0.44938	-3.78840	-89.73000	0.00465	-0.00858	-0.00992	-0.00150	-0.00363	-0.00107
0.00200	-2.04004	-1.96297	-0.47417	-0.44938	-3.78840	-89.73000	0.00465	-0.00858	-0.00992	-0.00150	-0.00363	-0.00107
0.00400	-2.04004	-1.96297	-0.47417	-0.44938	0.00000	0.00000	0.00465	-0.00858	-0.00992	-0.00150	-0.00363	-0.00107
0.00600	-2.04004	-1.96297	-0.47417	-0.44938	-3.78840	-89.73000	0.00465	-0.00858	-0.00992	-0.00150	-0.00363	-0.00107
0.00800	0.00060	0.00217	0.00024	-0.00009	-3.78840	-89.82000	0.00465	-0.00858	-0.00992	-0.00150	-0.00363	-0.00107
0.01000	0.00060	0.00217	0.00024	-0.00009	-3.78840	-89.73000	0.00465	-0.00858	-0.00992	-0.00150	-0.00363	-0.00107
0.01200	0.00060	0.00217	0.00024	-0.00009	-3.78840	-89.73000	0.00465	-0.00858	-0.00992	-0.00150	-0.00363	-0.00107
0.01400	0.00013	0.00045	0.00038	-0.00003	-3.96880	-89.64000	-0.03934	-0.01571	-0.00787	-0.01163	0.00453	-0.00259
0.01600	0.00013	0.00045	0.00038	-0.00003	-3.96880	-89.73000	-0.03934	-0.01571	-0.00787	-0.01163	0.00453	-0.00259
0.01800	0.00013	0.00045	0.00038	-0.00003	-3.96880	-89.64000	-0.03934	-0.01571	-0.00787	-0.01163	0.00453	-0.00259
0.02000	0.00013	0.00045	0.00038	-0.00003	-3.96880	-89.73000	-0.03934	-0.01571	-0.00787	-0.01163	0.00453	-0.00259
0.02200	0.00016	0.00140	0.00035	-0.00010	-3.87860	-89.73000	-0.03737	0.00664	-0.01456	-0.01197	0.00808	-0.00037
0.02400	0.00016	0.00140	0.00035	-0.00010	-3.87860	-89.73000	-0.03737	0.00664	-0.01456	-0.01197	0.00808	-0.00037
0.02600	0.00016	0.00140	0.00035	-0.00010	0.00000	0.00000	-0.03737	0.00664	-0.01456	-0.01197	0.00808	-0.00037
0.02800	0.00016	0.00140	0.00035	-0.00010	-3.87860	-89.73000	-0.03737	0.00664	-0.01456	-0.01197	0.00808	-0.00037
0.03000	0.00206	0.00090	0.00044	-0.00012	-3.78840	-89.82000	-0.03737	0.00664	-0.01456	-0.01197	0.00808	-0.00037
0.03200	0.00048	0.00060	-0.00010	-0.00022	-3.78840	-89.73000	-0.05082	0.00546	-0.01073	-0.01277	0.00645	-0.00160
0.03400	0.00048	0.00060	-0.00010	-0.00022	-3.78840	-89.73000	-0.05082	0.00546	-0.01073	-0.01277	0.00645	-0.00160
0.03600	0.00048	0.00060	-0.00010	-0.00022	-3.87860	-89.73000	-0.05082	0.00546	-0.01073	-0.01277	0.00645	-0.00160
0.03800	0.00048	0.00060	-0.00010	-0.00022	-3.87860	-89.73000	-0.05082	0.00546	-0.01073	-0.01277	0.00645	-0.00160
0.04000	0.00057	0.00185	0.00050	-0.00012	-3.87860	-89.73000	-0.02981	0.01716	-0.01157	-0.01293	0.00712	-0.00028
0.04200	0.00057	0.00185	0.00050	-0.00012	-3.87860	-89.73000	-0.02981	0.01716	-0.01157	-0.01293	0.00712	-0.00028
0.04400	0.00057	0.00185	0.00050	-0.00012	-3.96880	-89.82000	-0.02981	0.01716	-0.01157	-0.01293	0.00712	-0.00028
0.04600	0.00057	0.00185	0.00050	-0.00012	-3.87860	-89.82000	-0.02981	0.01716	-0.01157	-0.01293	0.00712	-0.00028
0.04800	0.00030	0.00035	0.00050	-0.00014	0.00000	0.00000	-0.03947	0.00096	-0.01388	-0.01351	0.00345	0.00201
0.05000	0.00030	0.00035	0.00050	-0.00014	-3.87860	-89.73000	-0.03947	0.00096	-0.01388	-0.01351	0.00345	0.00201
0.05200	0.00030	0.00035	0.00050	-0.00014	-3.87860	-89.82000	-0.03947	0.00096	-0.01388	-0.01351	0.00345	0.00201
0.05400	0.00030	0.00035	0.00050	-0.00014	-3.87860	-89.64000	-0.03947	0.00096	-0.01388	-0.01351	0.00345	0.00201
0.05600	0.00029	0.00195	0.00034	-0.00020	-3.87860	-89.64000	-0.03456	0.01661	-0.01820	-0.01283	0.00833	-0.00265
0.05800	0.00029	0.00195	0.00034	-0.00020	-3.78840	-89.64000	-0.03456	0.01661	-0.01820	-0.01283	0.00833	-0.00265
0.06000	0.00029	0.00195	0.00034	-0.00020	-3.78840	-89.73000	-0.03456	0.01661	-0.01820	-0.01283	0.00833	-0.00265
0.06200	0.00029	0.00195	0.00034	-0.00020	-3.87860	-89.73000	-0.03456	0.01661	-0.01820	-0.01283	0.00833	-0.00265
0.06400	0.00135	0.00069	0.00074	-0.00012	-3.87860	-89.73000	-0.03456	0.01661	-0.01820	-0.01336	0.00234	0.00093
0.06600	0.00076	0.00245	0.00076	-0.00023	-3.96880	-89.82000	-0.02358	0.00417	-0.01302	-0.01336	0.00234	0.00093
0.06800	0.00076	0.00245	0.00076	-0.00023	-3.96880	-89.82000	-0.02358	0.00417	-0.01302	-0.01336	0.00234	0.00093
0.07000	0.00076	0.00245	0.00076	-0.00023	0.00000	0.00000	-0.02358	0.00417	-0.01302	-0.01336	0.00234	0.00093
0.07200	0.00076	0.00245	0.00076	-0.00023	-3.87860	-89.73000	-0.02358	0.00417	-0.01302	-0.01336	0.00234	0.00093
0.07400	0.00011	0.00139	0.00052	0.00027	-3.78840	-89.82000	-0.02358	0.00417	-0.01302	-0.01336	0.00234	0.00093
0.07600	0.00098	0.00091	-0.00003	0.00092	-3.87860	-89.82000	-0.02910	0.00466	-0.01724	-0.01265	0.00349	0.00201
0.07800	0.00098	0.00091	-0.00003	0.00092	-3.78840	-89.91000	-0.02910	0.00466	-0.01724	-0.01265	0.00349	0.00201
0.08000	0.00098	0.00091	-0.00003	0.00092	-3.78840	-89.91000	-0.02910	0.00466	-0.01724	-0.01265	0.00349	0.00201
0.08200	0.00098	0.00091	-0.00003	0.00092	-3.78840	-89.91000	-0.02910	0.00466	-0.01724	-0.01265	0.00349	0.00201
0.08400	0.00018	0.00137	0.00048	0.00060	-3.78840	-89.91000	-0.02271	-0.00809	-0.00898	-0.01490	0.00111	0.00059
0.08600	0.00018	0.00137	0.00048	0.00060	-3.78840	-89.82000	-0.02271	-0.00809	-0.00898	-0.01490	0.00111	0.00059
0.08800	0.00018	0.00137	0.00048	0.00060	-3.78840	-89.91000	-0.02271	-0.00809	-0.00898	-0.01490	0.00111	0.00059
0.09000	0.00018	0.00137	0.00048	0.00060	-3.78840	-89.91000	-0.02271	-0.00809	-0.00898	-0.01490	0.00111	0.00059
0.09200	0.00165	0.00079	0.00029	-0.00020	0.00000	0.00000	-0.02271	-0.00809	-0.00898	-0.01484	0.00173	0.00034
0.09400	0.00078	0.00059	0.00067	0.00041	-3.69820	-89.82000	-0.03416	-0.01407	-0.01403	-0.01484	0.00173	0.00034
0.09600	0.00078	0.00059	0.00067	0.00041	-3.69820	-89.82000	-0.03416	-0.01407	-0.01403	-0.01484	0.00173	0.00034
0.09800	0.00078	0.00059	0.00067	0.00041	-3.78840	-89.82000	-0.03416	-0.01407	-0.01403	-0.01484	0.00173	0.00034
0.10000	0.00078	0.00059	0.00067	0.00041	-3.78840	-89.82000	-0.03416	-0.01407	-0.01403	-0.01484	0.00173	0.00034
0.10200	0.00044	0.00171	0.00039	0.00003	-3.78840	-89.82000	-0.01950	-0.00815	-0.01746	-0.01496	0.00170	-0.00164
0.10400	-0.00022	0.00074	0.00026	0.00040	-3.78840	-89.82000	-0.01950	-0.00815	-0.01746	-0.01496	0.00170	-0.00164
0.10600	-0.00022	0.00074	0.00026	0.00040	-3.78840	-89.73000	-0.01950	-0.00815	-0.01746	-0.01496	0.00170	-0.00164
0.10800	-0.00022	0.00074	0.00026	0.00040	-3.78840	-89.73000	-0.01950	-0.00815	-0.01746	-0.01496	0.00170	-0.00164
0.11000	-0.00022	0.00074	0.00026	0.00040	-3.87860	-89.64000	-0.01950	-0.00815	-0.01746	-0.01496	0.00170	-0.00164
0.11200	0.00059	0.00090	0.00030	-0.00009	-3.78840	-89.64000	-0.01950	-0.00815	-0.01746	-0.01496	0.00170	-0.00164
0.11400	0.00059	0.00090	0.00030	-0.00009	0.00000	0.00000	-0.03107	-0.00537	-0.01086	-0.01330	0.00167	-0.00389
0.11600	0.00059	0.00090	0.00030	-0.00009	-3.78840	-89.73000	-0.03107	-0.00537	-0.01086	-0.01330	0.00167	-0.00389
0.11800	-0.00029	0.00194	0.00051	0.00026	-3.78840	-89.73000	-0.03107	-0.00537	-0.01086	-0.01330	0.00167	-0.00389
0.12000	-0.00029	0.00194	0.00051	0.00026	-3.87860	-89.73000	-0.01139	-0.00568	-0.02548	-0.01431	0.00068	-0.00213
0.12200	-0.00029	0.00194	0.00051	0.00026	-3.87860	-89.64000	-0.01139	-0.00568	-0.02548	-0.01431	0.00068	-0.00213
0.12400	-0.00029	0.00194	0.00051	0.00026	-3.78840	-89.73000	-0.01139	-0.00568	-0.02548	-0.01431	0.00068	-0.00213
0.12600	0.00167	0.00066	0.00035	-0.00007	-3.78840	-89.73000	-0.01139	-0.00568	-0.02548	-0.01431	0.00068	-0.00213
0.12800	0.00035	0.00178	0.00029	-0.00029	-3.78840	-89.73000	-0.02583	-0.02278	-0.01175	-0.02169	-0.00154	-0.00410
0.13000	0.00035	0.00178	0.00029	-0.00029	-3.69820	-89.73000	-0.02583	-0.02278	-0.01175	-0.02169	-0.00154	-0.00410
0.13200	0.00035	0.00178	0.00029	-0.00029	-3.78840	-89.73000	-0.02583	-0.02278	-0.01175	-0.02169	-0.00154	-0.00410
0.13400	0.00035	0.00178	0.00029	-0.00029	-3.78840	-89.82000	-0.02583	-0.02278	-0.01175	-0.02169	-0.00154	-0.00410
0.13600	0.00060	0.00141	0.00036	0.00011	0.00000	0.00000	-0.02583	-0.02278	-0.01175	-0.02169	-0.00154	-0.00410
0.13800	-0.00022	0.00026	0.00014	0.00033	-3.87860	-89.73000	-0.02496	-0.01383	-0.01209	-0.01943	0.00493	-0.00071
0.14000	-0.00022	0.00026	0.00014	0.00033	-3.87860	-89.82000	-0.02496	-0.01383	-0.01209	-0.01943	0.00493	-0.00071
0.14200	-0.00022	0.00026	0.00014	0.00033	-3.87860	-89.82000	-0.02496	-0.01383	-0.01209	-0.01943	0.00493	-0.00071
0.14400	-0.00022	0.00026	0.00014	0.00033	-3.96880	-89.73000	-0.02496	-0.01383	-0.01209	-0.01943	0.00493	-0.00071
0.14600	0.00010	0.00173	0.00037	0.00030	-4.05900	-89.82000	-0.02496	-0.01383	-0.01209	-0.01650	0.00318	-0.00071
0.14800	0.00084	0.00145	0.00045	0.00017	-3.96880	-89.73000	-0.04243	-0.02784	-0.01317	-0.01650	0.00318	-0.00302
0.15000	0.00084	0.00145	0.00045	0.00017	-3.87860	-89.82000	-0.04243	-0.02784	-0.01317	-0.01650	0.00318	-0.00302
0.15200	0.00084	0.00145	0.00045	0.00017	-3.78840	-89.73000	-0.04243	-0.02784	-0.01317	-0.01650	0.00318	-0.00302
0.15400	0.00084	0.00145	0.00045	0.00017	-3.87860	-89.73000	-0.04243	-0.02784	-0.01317	-0.01650	0.00318	-0.00302
0.15600	0.00193	0.00071	0.00084	-0.00005	-3.87860	-89.64000	-0.04243	-0.02784	-0.01317	-0.01650	0.00318	-0.00302
0.15800	0.00113	0.00017	0.00045	-0.00000	0.00000	0.00000	-0.04462	-0.00506	-0.01086	-0.01502	0.01024	-0.00031
0.16000	0.00113	0.00017	0.00045	-0.00000	-3.96880	-89.73000	-0.04462	-0.00506	-0.01086	-0.01502	0.01024	-0.00031
0.16200	0.00113	0.00017	0.00045	-0.00000	-3.87860	-89.82000	-0.04462	-0.00506	-0.01086	-0.01502	0.01024	-0.00031
0.16400	0.00113	0.00017	0.00045	-0.00000	-3.96880	-89.91000	-0.04462	-0.00506	-0.01086	-0.01502	0.01024	-0.00031
0.16600	0.00021	0.00166	0.00043	-0.00022	-3.87860	-89.91000	-0.04073	-0.01432	-0.01234	-0.01616	0.00336	0.00275
0.16800	0.00021	0.00166	0.00043	-0.00022	-3.87860	-89.91000	-0.04073	-0.01432	-0.01234	-0.01616	0.00336	0.00275
0.17000	0.00021	0.00166	0.00043	-0.00022	-3.87860	-89.82000	-0.04073	-0.01432	-0.01234	-0.01616	0.00336	0.00275
0.17200	0.00021	0.00166	0.00043	-0.00022	-3.87860	-89.82000	-0.04073	-0.01432	-0.01234	-0.01616	0.00336	0.00275
0.17400	0.00041	0.00049	0.00039	-0.00006	-3.87860	-89.73000	-0.04073	-0.01432	-0.01234	-0.01616	0.00336	0.00275
0.17600	-0.00045	0.00386	-0.00062	0.00013	-3.78840	-89.82000	-0.04101	-0.00204	-0.02397	-0.01687	0.00426	0.00157
0.17800	-0.00045	0.00386	-0.00062	0.00013	-3.78840	-89.73000	-0.04101	-0.00204	-0.02397	-0.01687	0.00426	0.00157
0.18000	-0.00045	0.00386	-0.00062	0.00013	0.00000	0.00000	-0.04101	-0.00204	-0.02397	-0.01687	0.00426	0.00157
0.18200	-0.00045	0.00386	-0.00062	0.00013	-3.78840	-89.82000	-0.04101	-0.00204	-0.02397	-0.01687	0.00426	0.00157
0.18400	0.00157	0.00099	0.00025	-0.00020	-3.78840	-89.73000	-0.02586	-0.01389	-0.02079	-0.01894	0.00003	-0.00003
0.18600	0.00157	0.00099	0.00025	-0.00020	-3.78840	-89.73000	-0.02586	-0.01389	-0.02079	-0.01894	0.00003	-0.00003
0.18800	0.00157	0.00099	0.00025	-0.00020	-3.78840	-89.64000	-0.02586	-0.01389	-0.02079	-0.01894	0.00003	-0.00003
0.19000	0.00157	0.00099	0.00025	-0.00020	-3.78840	-89.73000	-0.02586	-0.01389	-0.02079	-0.01894	0.00003	-0.00003
0.19200	0.00062	0.00088	0.00045	-0.00001	-3.87860	-89.64000	-0.03289	-0.03602	-0.02708	-0.02048	-0.00207	-0.00068
0.19400	0.00062	0.00088	0.00045	-0.00001	-3.87860	-89.64000	-0.03289	-0.03602	-0.02708	-0.02048	-0.00207	-0.00068
0.19600	0.00062	0.00088	0.00045	-0.00001	-3.87860	-89.73000	-0.03289	-0.03602	-0.02708	-0.02048	-0.00207	-0.00068
0.19800	0.00062	0.00088	0.00045	-0.00001	-3.87860	-89.64000	-0.03289	-0.03602	-0.02708	-0.02048	-0.00207	-0.00068
0.20000	-0.00004	0.00079	0.00018	-0.00031	-3.87860	-89.64000	-0.03289	-0.03602	-0.02708	-0.02048	-0.00207	-0.00068
0.20200	0.00079	0.00001	0.00036	0.00007	-3.96880	-89.73000	-0.02490	-0.02022	-0.01885	-0.02011	-0.00096	-0.00167
0.20400	0.00079	0.00001	0.00036	0.00007	-3.96880	-89.64000	-0.02490	-0.02022	-0.01885	-0.02011	-0.00096	-0.00167
0.20600	0.00079	0.00001	0.00036	0.00007	-3.96880	-89.64000	-0.02490	-0.02022	-0.01885	-0.02011	-0.00096	-0.00167
0.20800	0.00079	0.00001	0.00036	0.00007	-3.96880	-89.55000	-0.02490	-0.02022	-0.01885	-0.02011	-0.00096	-0.00167
0.21000	0.00005	0.00127	0.00056	0.00002	-3.78840	-89.64000	-0.02490	-0.02022	-0.01885	-0.02011	-0.00096	-0.00167
0.21200	0.00005	0.00127	0.00056	0.00002	-3.78840	-89.73000	-0.04261	-0.03000	-0.01271	-0.01913	0.00111	-0.00105
0.21400	0.00262	0.00104	0.00012	-0.00011	-3.78840	-89.64000	-0.04261	-0.03000	-0.01271	-0.01913	0.00111	-0.00105
0.21600	0.00262	0.00104	0.00012	-0.00011	0.00000	0.00000	-0.04261	-0.03000	-0.01271	-0.01913	0.00111	-0.00105
0.21800	0.00262	0.00104	0.00012	-0.00011	-3.78840	-89.73000	-0.04261	-0.03000	-0.01271	-0.01913	0.00111	-0.00105
0.22000	0.00262	0.00104	0.00012	-0.00011	-3.78840	-89.73000	-0.04261	-0.03000	-0.01271	-0.01913	0.00111	-0.00105
0.22200	0.00115	0.00035	0.00068	-0.00018	-3.78840	-89.73000	-0.02351	-0.02457	-0.01499	-0.02169	0.00478	-0.00049
0.22400	0.00115	0.00035	0.00068	-0.00018	-3.78840	-89.73000	-0.02351	-0.02457	-0.01499	-0.02169	0.00478	-0.00049
0.22600	0.00115	0.00035	0.00068	-0.00018	-3.69820	-89.73000	-0.02351	-0.02457	-0.01499	-0.02169	0.00478	-0.00049
0.22800	0.00115	0.00035	0.00068	-0.00018	-3.87860	-89.82000	-0.02351	-0.02457	-0.01499	-0.02169	0.00478	-0.00049
0.23000	0.00037	0.00178	0.00032	-0.00008	-3.78840	-89.73000	-0.02351	-0.02457	-0.01499	-0.02169	0.00478	-0.00049
0.23200	0.00089	0.00067	0.00057	0.00011	-3.78840	-89.64000	-0.04561	-0.02870	-0.00500	-0.02058	-0.00009	-0.00025
0.23400	0.00089	0.00067	0.00057	0.00011	-3.87860	-89.73000	-0.04561	-0.02870	-0.00500	-0.02058	-0.00009	-0.00025
0.23600	0.00089	0.00067	0.00057	0.00011	-3.96880	-89.73000	-0.04561	-0.02870	-0.00500	-0.02058	-0.00009	-0.00025
0.23800	0.00089	0.00067	0.00057	0.00011	0.00000	0.00000	-0.04561	-0.02870	-0.00500	-0.02058	-0.00009	-0.00025
0.24000	0.00061	0.00139	0.00041	-0.00019	-3.87860	-89.64000	-0.04561	-0.02870	-0.00500	-0.02064	-0.00247	0.00197
0.24200	0.00038	0.00155	0.00039	-0.00035	-3.78840	-89.64000	-0.01311	-0.01031	-0.02705	-0.02064	-0.00247	0.00197
0.24400	0.00038	0.00155	0.00039	-0.00035	-3.60800	-89.64000	-0.01311	-0.01031	-0.02705	-0.02064	-0.00247	0.00197
0.24600	0.00038	0.00155	0.00039	-0.00035	-3.69820	-89.64000	-0.01311	-0.01031	-0.02705	-0.02064	-0.00247	0.00197
0.24800	0.00038	0.00155	0.00039	-0.00035	-3.69820	-89.73000	-0.01311	-0.01031	-0.02705	-0.02064	-0.00247	0.00197
0.25000	0.00191	0.00062	0.00016	-0.00026	-3.69820	-89.82000	-0.01311	-0.01031	-0.02705	-0.02064	-0.00247	0.00197
0.25200	0.00023	0.00044	0.00022	-0.00022	-3.69820	-89.73000	-0.03077	-0.01806	-0.01598	-0.01977	-0.00253	0.00099
0.25400	0.00023	0.00044	0.00022	-0.00022	-3.69820	-89.91000	-0.03077	-0.01806	-0.01598	-0.01977	-0.00253	0.00099
0.25600	0.00023	0.00044	0.00022	-0.00022	-3.78840	-89.82000	-0.03077	-0.01806	-0.01598	-0.01977	-0.00253	0.00099
0.25800	0.00023	0.00044	0.00022	-0.00022	0.00000	0.00000	-0.03077	-0.01806	-0.01598	-0.01977	-0.00253	0.00099
0.26000	0.00034	0.00166	0.00056	-0.00028	0.00000	0.00000	-0.01660	-0.01343	-0.03041	-0.02141	0.00019	0.00043
0.26200	0.00034	0.00166	0.00056	-0.00028	-3.87860	-89.64000	-0.01660	-0.01343	-0.03041	-0.02141	0.00019	0.00043
0.26400	0.00034	0.00166	0.00056	-0.00028	-3.96880	-89.55000	-0.01660	-0.01343	-0.03041	-0.02141	0.00019	0.00043
0.26600	0.00034	0.00166	0.00056	-0.00028	-3.96880	-89.64000	-0.01660	-0.01343	-0.03041	-0.02141	0.00019	0.00043
0.26800	0.00029	0.00073	0.00038	0.00024	-3.87860	-89.73000	-0.03632	-0.03762	-0.01490	-0.02240	-0.00071	0.00019
0.27000	0.00029	0.00073	0.00038	0.00024	-3.78840	-89.82000	-0.03632	-0.03762	-0.01490	-0.02240	-0.00071	0.00019
0.27200	0.00029	0.00073	0.00038	0.00024	-3.78840	-89.64000	-0.03632	-0.03762	-0.01490	-0.02240	-0.00071	0.00019
0.27400	0.00029	0.00073	0.00038	0.00024	-3.87860	-89.64000	-0.03632	-0.03762	-0.01490	-0.02240	-0.00071	0.00019
0.27600	0.00094	0.00171	0.00022	-0.00000	-3.87860	-89.64000	-0.02956	-0.03133	-0.01508	-0.02317	0.00219	0.00111
0.27800	0.00094	0.00171	0.00022	-0.00000	-3.78840	-89.82000	-0.02956	-0.03133	-0.01508	-0.02317	0.00219	0.00111
0.28000	0.00094	0.00171	0.00022	-0.00000	0.00000	0.00000	-0.02956	-0.03133	-0.01508	-0.02317	0.00219	0.00111
0.28200	0.00094	0.00171	0.00022	-0.00000	-3.78840	-89.82000	-0.02956	-0.03133	-0.01508	-0.02317	0.00219	0.00111
0.28400	0.00105	0.00041	0.00038	0.00016	-3.78840	-89.82000	-0.03185	-0.02815	-0.02748	-0.02169	0.00145	0.00123
0.28600	0.00105	0.00041	0.00038	0.00016	-3.78840	-89.82000	-0.03185	-0.02815	-0.02748	-0.02169	0.00145	0.00123
0.28800	0.00105	0.00041	0.00038	0.00016	-3.78840	-89.82000	-0.03185	-0.02815	-0.02748	-0.02169	0.00145	0.00123
0.29000	0.00105	0.00041	0.00038	0.00016	-3.78840	-89.82000	-0.03185	-0.02815	-0.02748	-0.02169	0.00145	0.00123
0.29200	0.00051	0.00100	0.00040	-0.00014	-3.69820	-89.82000	-0.03200	-0.01991	-0.01900	-0.01863	-0.00163	0.00031
0.29400	0.00035	0.00056	0.00031	-0.00009	-3.78840	-89.82000	-0.03200	-0.01991	-0.01900	-0.01863	-0.00163	0.00031
0.29600	0.00035	0.00056	0.00031	-0.00009	-3.78840	-89.73000	-0.03200	-0.01991	-0.01900	-0.01863	-0.00163	0.00031
0.29800	0.00035	0.00056	0.00031	-0.00009	-3.78840	-89.73000	-0.03200	-0.01991	-0.01900	-0.01863	-0.00163	0.00031
0.30000	0.00035	0.00056	0.00031	-0.00009	-3.78840	-89.73000	-0.03200	-0.01991	-0.01900	-0.01863	-0.00163	0.00031
0.30200	0.00016	0.00091	0.00058	0.00006	-3.78840	-89.82000	-0.01490	-0.00596	-0.01283	-0.01882	-0.00265	-0.00179
0.30400	0.00016	0.00091	0.00058	0.00006	0.00000	0.00000	-0.01490	-0.00596	-0.01283	-0.01882	-0.00265	-0.00179
0.30600	0.00016	0.00091	0.00058	0.00006	-3.78840	-89.73000	-0.01490	-0.00596	-0.01283	-0.01882	-0.00265	-0.00179
0.30800	0.00016	0.00091	0.00058	0.00006	-3.78840	-89.82000	-0.01490	-0.00596	-0.01283	-0.01882	-0.00265	-0.00179
0.31000	0.00150	0.00074	0.00030	-0.00022	-3.87860	-89.82000	-0.02882	-0.01787	-0.01888	-0.01916	-0.00244	-0.00037
0.31200	0.00150	0.00074	0.00030	-0.00022	0.00000	-89.91000	-0.02882	-0.01787	-0.01888	-0.01916	-0.00244	-0.00037
0.31400	0.00150	0.00074	0.00030	-0.00022	-3.87860	-89.91000	-0.02882	-0.01787	-0.01888	-0.01916	-0.00244	-0.00037
0.31600	0.00150	0.00074	0.00030	-0.00022	-3.78840	-89.82000	-0.02882	-0.01787	-0.01888	-0.01916	-0.00244	-0.00037
0.31800	0.00033	0.00137	0.00023	-0.00020	-3.87860	-89.82000	-0.02882	-0.01787	-0.01888	-0.01916	-0.00244	-0.00037
0.32000	0.00023	0.00113	0.00145	-0.00007	-3.87860	-89.73000	-0.01086	-0.01519	-0.01218	-0.01928	-0.00222	-0.00003
0.32200	0.00023	0.00113	0.00145	-0.00007	-3.78840	-89.64000	-0.01086	-0.01519	-0.01218	-0.01928	-0.00222	-0.00003
0.32400	0.00023	0.00113	0.00145	-0.00007	-3.87860	-89.64000	-0.01086	-0.01519	-0.01218	-0.01928	-0.00222	-0.00003
0.32600	0.00023	0.00113	0.00145	-0.00007	-3.87860	-89.82000	-0.01086	-0.01519	-0.01218	-0.01928	-0.00222	-0.00003
0.32800	0.00010	0.00056	0.00019	-0.00008	-3.87860	-89.82000	-0.02793	-0.03639	-0.01083	-0.02126	-0.00299	-0.00093
0.33000	0.00010	0.00056	0.00019	-0.00008	-3.78840	-89.82000	-0.02793	-0.03639	-0.01083	-0.02126	-0.00299	-0.00093
0.33200	0.00010	0.00056	0.00019	-0.00008	-3.78840	-89.91000	-0.02793	-0.03639	-0.01083	-0.02126	-0.00299	-0.00093
0.33400	0.00010	0.00056	0.00019	-0.00008	0.00000	0.00000	-0.02793	-0.03639	-0.01083	-0.02126	-0.00299	-0.00093
0.33600	0.00032	0.00157	0.00039	-0.00016	-3.87860	-89.82000	-0.02737	-0.01775	-0.01743	-0.02042	-0.00160	-0.00096
0.33800	0.00032	0.00157	0.00039	-0.00016	-3.78840	-89.73000	-0.02737	-0.01775	-0.01743	-0.02042	-0.00160	-0.00096
0.34000	0.00032	0.00157	0.00039	-0.00016	-3.87860	-89.64000	-0.02737	-0.01775	-0.01743	-0.02042	-0.00160	-0.00096
0.34200	0.00032	0.00157	0.00039	-0.00016	-3.87860	-89.64000	-0.02737	-0.01775	-0.01743	-0.02042	-0.00160	-0.00096
0.34400	0.00182	0.00037	0.00047	-0.00007	-3.87860	-89.73000	-0.02364	-0.00821	-0.01114	-0.01675	-0.00176	0.00056
0.34600	0.00182	0.00037	0.00047	-0.00007	-3.78840	-89.64000	-0.02364	-0.00821	-0.01114	-0.01675	-0.00176	0.00056
0.34800	0.00182	0.00037	0.00047	-0.00007	-3.87860	-89.64000	-0.02364	-0.00821	-0.01114	-0.01675	-0.00176	0.00056
0.35000	0.00182	0.00037	0.00047	-0.00007	-3.96880	-89.64000	-0.02364	-0.00821	-0.01114	-0.01675	-0.00176	0.00056
0.35200	0.00074	0.00182	0.00024	-0.00003	-4.05900	-89.73000	-0.02864	-0.00299	-0.00324	-0.01746	0.00015	0.00219
0.35400	0.00074	0.00182	0.00024	-0.00003	-4.05900	-89.82000	-0.02864	-0.00299	-0.00324	-0.01746	0.00015	0.00219
0.35600	0.00074	0.00182	0.00024	-0.00003	0.00000	0.00000	-0.02864	-0.00299	-0.00324	-0.01746	0.00015	0.00219
0.35800	0.00074	0.00182	0.00024	-0.00003	-3.96880	-89.82000	-0.02864	-0.00299	-0.00324	-0.01746	0.00015	0.00219
0.36000	0.00039	0.00077	0.00044	-0.00000	-3.87860	-89.91000	-0.01676	-0.00111	-0.01678	-0.01771	0.00059	0.00056
0.36200	0.00039	0.00077	0.00044	-0.00000	-3.96880	-89.91000	-0.01676	-0.00111	-0.01678	-0.01771	0.00059	0.00056
0.36400	0.00039	0.00077	0.00044	-0.00000	-3.96880	-89.91000	-0.01676	-0.00111	-0.01678	-0.01771	0.00059	0.00056
0.36600	0.00039	0.00077	0.00044	-0.00000	-3.96880	-89.82000	-0.01676	-0.00111	-0.01678	-0.01771	0.00059	0.00056
0.36800	0.00007	0.00215	0.00039	-0.00013	-3.87860	-89.64000	-0.03629	-0.01438	-0.01755	-0.01641	-0.00416	0.00043
0.37000	0.00007	0.00215	0.00039	-0.00013	-3.87860	-89.73000	-0.03629	-0.01438	-0.01755	-0.01641	-0.00416	0.00043
0.37200	0.00007	0.00215	0.00039	-0.00013	-3.87860	-89.73000	-0.03629	-0.01438	-0.01755	-0.01641	-0.00416	0.00043
0.37400	0.00007	0.00215	0.00039	-0.00013	-3.87860	-89.64000	-0.03629	-0.01438	-0.01755	-0.01641	-0.00416	0.00043
0.37600	0.00167	0.00085	0.00033	-0.00000	-3.87860	-89.73000	-0.01342	-0.01886	-0.01542	-0.01786	-0.00194	0.00306
0.37800	0.00167	0.00085	0.00033	-0.00000	0.00000	0.00000	-0.01342	-0.01886	-0.01542	-0.01786	-0.00194	0.00306
0.38000	0.00167	0.00085	0.00033	-0.00000	-3.96880	-89.73000	-0.01342	-0.01886	-0.01542	-0.01786	-0.00194	0.00306
0.38200	0.00167	0.00085	0.00033	-0.00000	-3.96880	-89.82000	-0.01342	-0.01886	-0.01542	-0.01786	-0.00194	0.00306
0.38400	0.00021	0.00191	0.00052	0.00023	-3.96880	-89.82000	-0.01685	-0.01583	-0.01687	-0.01731	-0.00318	0.00003
0.38600	0.00021	0.00191	0.00052	0.00023	-3.96880	-89.82000	-0.01685	-0.01583	-0.01687	-0.01731	-0.00318	0.00003
0.38800	0.00021	0.00191	0.00052	0.00023	-3.96880	-89.82000	-0.01685	-0.01583	-0.01687	-0.01731	-0.00318	0.00003
0.39000	0.00021	0.00191	0.00052	0.00023	-3.96880	-89.82000	-0.01685	-0.01583	-0.01687	-0.01731	-0.00318	0.00003
0.39200	0.00032	0.00073	0.00052	-0.00004	-3.96880	-89.82000	-0.03549	-0.02062	-0.01357	-0.01672	-0.00145	-0.00056
0.39400	0.00032	0.00073	0.00052	-0.00004	-3.96880	-89.82000	-0.03549	-0.02062	-0.01357	-0.01672	-0.00145	-0.00056
0.39600	0.00032	0.00073	0.00052	-0.00004	-3.96880	-89.82000	-0.03549	-0.02062	-0.01357	-0.01672	-0.00145	-0.00056
0.39800	0.00032	0.00073	0.00052	-0.00004	-4.05900	-89.82000	-0.03549	-0.02062	-0.01357	-0.01672	-0.00145	-0.00056
0.40000	0.00050	0.00177	0.00014	0.00006	-3.96880	-89.73000	-0.02120	-0.00753	-0.00611	-0.01586	-0.00006	-0.00099
0.40200	0.00050	0.00177	0.00014	0.00006	-3.87860	-89.82000	-0.02120	-0.00753	-0.00611	-0.01586	-0.00006	-0.00099
0.40400	0.00050	0.00177	0.00014	0.00006	-3.78840	-89.82000	-0.02120	-0.00753	-0.00611	-0.01586	-0.00006	-0.00099
0.40600	0.00050	0.00177	0.00014	0.00006	-3.87860	-89.73000	-0.02120	-0.00753	-0.00611	-0.01586	-0.00006	-0.00099
0.40800	0.00118	0.00061	0.00030	-0.00016	-3.78840	-89.82000	-0.02990	-0.02269	-0.00703	-0.01792	-0.00250	-0.00182
0.41000	0.00118	0.00061	0.00030	-0.00016	-3.87860	-89.82000	-0.02990	-0.02269	-0.00703	-0.01792	-0.00250	-0.00182
0.41200	0.00118	0.00061	0.00030	-0.00016	-3.87860	-89.82000	-0.02990	-0.02269	-0.00703	-0.01792	-0.00250	-0.00182
0.41400	0.00118	0.00061	0.00030	-0.00016	-3.87860	-89.91000	-0.02990	-0.02269	-0.00703	-0.01792	-0.00250	-0.00182
0.41600	0.00040	0.00200	0.00046	-0.00017	-3.78840	-89.82000	-0.01731	-0.01429	-0.02276	-0.01718	-0.00086	-0.00361
0.41800	0.00051	0.00074	0.00028	0.00000	-3.78840	-89.73000	-0.01731	-0.01429	-0.02276	-0.01718	-0.00086	-0.00361
0.42000	0.00051	0.00074	0.00028	0.00000	-3.78840	-89.73000	-0.01731	-0.01429	-0.02276	-0.01718	-0.00086	-0.00361
0.42200	0.00051	0.00074	0.00028	0.00000	-3.96880	-89.64000	-0.01731	-0.01429	-0.02276	-0.01718	-0.00086	-0.00361
0.42400	0.00051	0.00074	0.00028	0.00000	-3.96880	-89.64000	-0.01731	-0.01429	-0.02276	-0.01718	-0.00086	-0.00361
0.42600	0.00022	0.00106	0.00061	-0.00005	-3.96880	-89.64000	-0.01142	-0.01324	-0.02286	-0.01410	-0.01005	0.00089
0.42800	0.00022	0.00106	0.00061	-0.00005	0.00000	0.00000	-0.01142	-0.01324	-0.02286	-0.01410	-0.01005	0.00089
0.43000	0.00022	0.00106	0.00061	-0.00005	-4.05900	-89.55000	-0.01142	-0.01324	-0.02286	-0.01410	-0.01005	0.00089
0.43200	0.00022	0.00106	0.00061	-0.00005	-4.05900	-89.55000	-0.01142	-0.01324	-0.02286	-0.01410	-0.01005	0.00089
0.43400	0.00189	0.00122	0.00039	-0.00022	-3.96880	-89.55000	-0.00864	-0.00914	-0.01403	-0.01552	-0.00802	0.00120
0.43600	0.00189	0.00122	0.00039	-0.00022	-3.87860	-89.64000	-0.00864	-0.00914	-0.01403	-0.01552	-0.00802	0.00120
0.43800	0.00189	0.00122	0.00039	-0.00022	-3.96880	-89.64000	-0.00864	-0.00914	-0.01403	-0.01552	-0.00802	0.00120
0.44000	0.00189	0.00122	0.00039	-0.00022	-3.96880	-89.64000	-0.00864	-0.00914	-0.01403	-0.01552	-0.00802	0.00120
0.44200	0.00087	0.00116	0.00073	-0.00008	-3.87860	-89.82000	0.00117	0.00438	-0.02039	-0.01558	-0.00703	0.00040
0.44400	0.00087	0.00116	0.00073	-0.00008	-3.87860	-90.00000	0.00117	0.00438	-0.02039	-0.01558	-0.00703	0.00040
0.44600	0.00087	0.00116	0.00073	-0.00008	-3.87860	-89.91000	0.00117	0.00438	-0.02039	-0.01558	-0.00703	0.00040
0.44800	0.00087	0.00116	0.00073	-0.00008	-3.69820	-89.91000	0.00117	0.00438	-0.02039	-0.01558	-0.00703	0.00040
0.45000	0.00038	0.00117	0.00041	-0.00000	-3.69820	-89.91000	-0.01602	-0.01543	-0.02804	-0.01570	-0.00688	0.00074
0.45200	0.00038	0.00117	0.00041	-0.00000	-3.87860	-89.82000	-0.01602	-0.01543	-0.02804	-0.01570	-0.00688	0.00074
0.45400	0.00038	0.00117	0.00041	-0.00000	-3.78840	-89.91000	-0.01602	-0.01543	-0.02804	-0.01570	-0.00688	0.00074
0.45600	0.00038	0.00117	0.00041	-0.00000	-3.78840	-89.91000	-0.01602	-0.01543	-0.02804	-0.01570	-0.00688	0.00074
0.45800	0.00054	0.00100	0.00052	0.00002	-3.78840	-89.82000	-0.01213	-0.01488	-0.02650	-0.01765	-0.00484	0.00145
0.46000	0.00054	0.00100	0.00052	0.00002	-3.87860	-89.82000	-0.01213	-0.01488	-0.02650	-0.01765	-0.00484	0.00145
0.46200	0.00054	0.00100	0.00052	0.00002	-3.87860	-89.73000	-0.01213	-0.01488	-0.02650	-0.01765	-0.00484	0.00145
0.46400	0.00054	0.00100	0.00052	0.00002	-3.96880	-89.73000	-0.01213	-0.01488	-0.02650	-0.01765	-0.00484	0.00145
0.46600	0.00204	0.00095	0.00040	-0.00020	0.00000	0.00000	-0.01244	-0.02404	-0.02563	-0.01984	-0.00333	0.00123
0.46800	0.00204	0.00095	0.00040	-0.00020	-3.96880	-89.91000	-0.01244	-0.02404	-0.02563	-0.01984	-0.00333	0.00123
0.47000	0.00204	0.00095	0.00040	-0.00020	-4.05900	-89.82000	-0.01244	-0.02404	-0.02563	-0.01984	-0.00333	0.00123
0.47200	0.00204	0.00095	0.00040	-0.00020	-4.05900	-89.82000	-0.01244	-0.02404	-0.02563	-0.01984	-0.00333	0.00123
0.47400	0.00078	0.00118	0.00045	-0.00004	-4.05900	-89.82000	-0.01858	-0.01059	-0.03254	-0.01703	-0.00407	0.00052
0.47600	0.00078	0.00118	0.00045	-0.00004	-4.05900	-89.73000	-0.01858	-0.01059	-0.03254	-0.01703	-0.00407	0.00052
0.47800	0.00078	0.00118	0.00045	-0.00004	-3.96880	-89.82000	-0.01858	-0.01059	-0.03254	-0.01703	-0.00407	0.00052
0.48000	0.00078	0.00118	0.00045	-0.00004	-3.96880	-89.73000	-0.01858	-0.01059	-0.03254	-0.01703	-0.00407	0.00052
0.48200	0.00026	0.00105	0.00008	0.00007	-3.96880	-89.73000	-0.00222	0.00204	-0.02933	-0.01555	-0.00500	0.00012
0.48400	0.00026	0.00105	0.00008	0.00007	-3.96880	-89.64000	-0.00222	0.00204	-0.02933	-0.01555	-0.00500	0.00012
0.48600	0.00026	0.00105	0.00008	0.00007	-3.96880	-89.64000	-0.00222	0.00204	-0.02933	-0.01555	-0.00500	0.00012
0.48800	0.00026	0.00105	0.00008	0.00007	0.00000	0.00000	-0.00222	0.00204	-0.02933	-0.01555	-0.00500	0.00012
0.49000	0.00037	0.00130	0.00032	-0.00006	-3.96880	-89.82000	-0.00855	-0.01046	-0.01619	-0.01641	-0.00996	0.00241
0.49200	0.00037	0.00130	0.00032	-0.00006	-3.96880	-89.82000	-0.00855	-0.01046	-0.01619	-0.01641	-0.00996	0.00241
0.49400	0.00037	0.00130	0.00032	-0.00006	-3.96880	-89.73000	-0.00855	-0.01046	-0.01619	-0.01641	-0.00996	0.00241
0.49600	0.00037	0.00130	0.00032	-0.00006	-3.96880	-89.73000	-0.00855	-0.01046	-0.01619	-0.01641	-0.00996	0.00241
0.49800	0.00193	0.00083	0.00043	-0.00016	-3.96880	-89.73000	-0.00318	-0.00586	-0.01943	-0.01709	-0.00820	-0.00028
0.50000	0.00193	0.00083	0.00043	-0.00016	-3.87860	-89.73000	-0.00318	-0.00586	-0.01943	-0.01709	-0.00820	-0.00028
0.50200	0.00193	0.00083	0.00043	-0.00016	-3.87860	-89.73000	-0.00318	-0.00586	-0.01943	-0.01709	-0.00820	-0.00028
0.50400	0.00193	0.00083	0.00043	-0.00016	-3.96880	-89.73000	-0.00318	-0.00586	-0.01943	-0.01709	-0.00820	-0.00028
0.50600	0.00066	0.00143	0.00066	-0.00010	-3.87860	-89.73000	-0.01808	-0.02852	-0.02193	-0.01943	-0.00611	-0.00309
0.50800	0.00066	0.00143	0.00066	-0.00010	-3.87860	-89.73000	-0.01808	-0.02852	-0.02193	-0.01943	-0.00611	-0.00309
0.51000	0.00066	0.00143	0.00066	-0.00010	-3.96880	-89.82000	-0.01808	-0.02852	-0.02193	-0.01943	-0.00611	-0.00309
0.51200	0.00066	0.00143	0.00066	-0.00010	-3.96880	-89.82000	-0.01808	-0.02852	-0.02193	-0.01943	-0.00611	-0.00309
0.51400	0.00037	0.00083	0.00047	0.00003	-3.96880	-89.73000	-0.01808	-0.02852	-0.02193	-0.01943	-0.00611	-0.00309
0.51600	-0.00026	0.00044	0.00029	-0.00014	-4.05900	-89.73000	-0.02740	-0.03327	-0.01382	-0.01981	-0.00034	-0.00034
0.51800	-0.00026	0.00044	0.00029	-0.00014	-3.96880	-89.82000	-0.02740	-0.03327	-0.01382	-0.01981	-0.00034	-0.00034
0.52000	-0.00026	0.00044	0.00029	-0.00014	-3.96880	-89.73000	-0.02740	-0.03327	-0.01382	-0.01981	-0.00034	-0.00034
0.52200	-0.00026	0.00044	0.00029	-0.00014	-3.96880	-89.73000	-0.02740	-0.03327	-0.01382	-0.01981	-0.00034	-0.00034
0.52400	0.00034	0.00207	0.00030	0.00025	-3.87860	-89.82000	-0.02462	-0.02713	-0.01394	-0.02005	-0.00133	-0.00077
0.52600	0.00034	0.00207	0.00030	0.00025	-3.96880	-89.73000	-0.02462	-0.02713	-0.01394	-0.02005	-0.00133	-0.00077
0.52800	0.00034	0.00207	0.00030	0.00025	-3.96880	-89.73000	-0.02462	-0.02713	-0.01394	-0.02005	-0.00133	-0.00077
0.53000	0.00034	0.00207	0.00030	0.00025	-3.96880	-89.64000	-0.02462	-0.02713	-0.01394	-0.02005	-0.00133	-0.00077
0.53200	0.00178	0.00052	0.00026	-0.00001	0.00000	0.00000	-0.02462	-0.02713	-0.01394	-0.02005	-0.00133	-0.00077
0.53400	0.00006	0.00176	0.00029	0.00031	-3.87860	-89.55000	-0.04169	-0.02028	-0.01869	-0.01971	-0.00278	0.00108
0.53600	0.00006	0.00176	0.00029	0.00031	-3.87860	-89.64000	-0.04169	-0.02028	-0.01869	-0.01971	-0.00278	0.00108
0.53800	0.00006	0.00176	0.00029	0.00031	-3.87860	-89.64000	-0.04169	-0.02028	-0.01869	-0.01971	-0.00278	0.00108
0.54000	0.00006	0.00176	0.00029	0.00031	-3.87860	-89.64000	-0.04169	-0.02028	-0.01869	-0.01971	-0.00278	0.00108
0.54200	0.00038	0.00176	0.00018	0.00012	-3.78840	-89.73000	-0.01632	-0.00213	-0.01909	-0.01755	-0.00376	0.00130
0.54400	0.00038	0.00176	0.00018	0.00012	-3.87860	-89.73000	-0.01632	-0.00213	-0.01909	-0.01755	-0.00376	0.00130
0.54600	0.00038	0.00176	0.00018	0.00012	-3.78840	-89.73000	-0.01632	-0.00213	-0.01909	-0.01755	-0.00376	0.00130
0.54800	0.00038	0.00176	0.00018	0.00012	-3.78840	-89.64000	-0.01632	-0.00213	-0.01909	-0.01755	-0.00376	0.00130
0.55000	0.00063	0.00076	0.00052	0.00019	-3.69820	-89.64000	-0.02410	-0.01911	-0.02628	-0.02024	-0.00460	0.00222
0.55200	0.00063	0.00076	0.00052	0.00019	0.00000	0.00000	-0.02410	-0.01911	-0.02628	-0.02024	-0.00460	0.00222
0.55400	0.00063	0.00076	0.00052	0.00019	0.00000	0.00000	-0.02410	-0.01911	-0.02628	-0.02024	-0.00460	0.00222
0.55600	0.00063	0.00076	0.00052	0.00019	-3.87860	-89.73000	-0.02410	-0.01911	-0.02628	-0.02024	-0.00460	0.00222
0.55800	0.00072	0.00138	0.00025	-0.00014	-3.87860	-89.73000	-0.02410	-0.01911	-0.02628	-0.02011	-0.00552	0.00154
0.56000	0.00106	0.00045	0.00025	-0.00012	-3.87860	-89.73000	-0.02105	-0.01435	-0.03510	-0.02011	-0.00552	0.00154
0.56200	0.00106	0.00045	0.00025	-0.00012	-3.78840	-89.73000	-0.02105	-0.01435	-0.03510	-0.02011	-0.00552	0.00154
0.56400	0.00106	0.00045	0.00025	-0.00012	-3.87860	-89.73000	-0.02105	-0.01435	-0.03510	-0.02011	-0.00552	0.00154
0.56600	0.00106	0.00045	0.00025	-0.00012	-3.87860	-89.73000	-0.02105	-0.01435	-0.03510	-0.02011	-0.00552	0.00154
0.56800	0.00055	0.00123	0.00046	0.00000	0.00000	0.00000	-0.01799	-0.02645	-0.01733	-0.02243	-0.00688	0.00139
0.57000	0.00055	0.00123	0.00046	0.00000	-3.87860	-89.73000	-0.01799	-0.02645	-0.01733	-0.02243	-0.00688	0.00139
0.57200	0.00055	0.00123	0.00046	0.00000	-3.87860	-89.82000	-0.01799	-0.02645	-0.01733	-0.02243	-0.00688	0.00139
0.57400	0.00055	0.00123	0.00046	0.00000	-3.87860	-89.91000	-0.01799	-0.02645	-0.01733	-0.02243	-0.00688	0.00139
0.57600	0.00039	0.00090	0.00043	0.00082	-3.78840	-89.82000	-0.01799	-0.02645	-0.01733	-0.02243	-0.00688	0.00139
0.57800	-0.00011	0.00088	0.00027	-0.00018	-3.78840	-89.82000	-0.02043	-0.03392	-0.01817	-0.01943	-0.00700	-0.00003
0.58000	-0.00011	0.00088	0.00027	-0.00018	-3.78840	-89.82000	-0.02043	-0.03392	-0.01817	-0.01943	-0.00700	-0.00003
0.58200	-0.00011	0.00088	0.00027	-0.00018	-3.87860	-89.73000	-0.02043	-0.03392	-0.01817	-0.01943	-0.00700	-0.00003
0.58400	-0.00011	0.00088	0.00027	-0.00018	-3.87860	-89.73000	-0.02043	-0.03392	-0.01817	-0.01943	-0.00700	-0.00003
0.58600	0.00034	0.00171	0.00026	0.00001	-3.87860	-89.82000	-0.02043	-0.03392	-0.01817	-0.01943	-0.00700	-0.00003
0.58800	0.00246	0.00037	0.00020	-0.00012	-3.87860	-89.82000	-0.02459	-0.03108	-0.02711	-0.02215	-0.00716	0.00099
0.59000	0.00246	0.00037	0.00020	-0.00012	-3.87860	-89.82000	-0.02459	-0.03108	-0.02711	-0.02215	-0.00716	0.00099
0.59200	0.00246	0.00037	0.00020	-0.00012	-3.87860	-89.91000	-0.02459	-0.03108	-0.02711	-0.02215	-0.00716	0.00099
0.59400	0.00246	0.00037	0.00020	-0.00012	-3.78840	-89.91000	-0.02459	-0.03108	-0.02711	-0.02215	-0.00716	0.00099
0.59600	0.00133	0.00079	0.00013	-0.00004	-3.87860	-89.91000	-0.02484	-0.03077	-0.02634	-0.02042	-0.00679	0.00278
0.59800	0.00133	0.00079	0.00013	-0.00004	-3.78840	-89.82000	-0.02484	-0.03077	-0.02634	-0.02042	-0.00679	0.00278
0.60000	0.00133	0.00079	0.00013	-0.00004	-3.78840	-89.73000	-0.02484	-0.03077	-0.02634	-0.02042	-0.00679	0.00278
0.60200	0.00133	0.00079	0.00013	-0.00004	-3.87860	-89.73000	-0.02484	-0.03077	-0.02634	-0.02042	-0.00679	0.00278
0.60400	0.00039	0.00173	0.00051	-0.00001	0.00000	0.00000	-0.00552	-0.02815	-0.02276	-0.02372	-0.00836	-0.00052
0.60600	0.00039	0.00173	0.00051	-0.00001	-3.96880	-89.73000	-0.00552	-0.02815	-0.02276	-0.02372	-0.00836	-0.00052
0.60800	0.00039	0.00173	0.00051	-0.00001	-3.96880	-89.82000	-0.00552	-0.02815	-0.02276	-0.02372	-0.00836	-0.00052
0.61000	0.00039	0.00173	0.00051	-0.00001	-4.05900	-89.73000	-0.00552	-0.02815	-0.02276	-0.02372	-0.00836	-0.00052
0.61200	0.00029	0.00029	0.00055	0.00016	-3.96880	-89.73000	-0.02277	-0.02787	-0.02949	-0.02462	-0.00879	0.00009
0.61400	0.00029	0.00029	0.00055	0.00016	-3.96880	-89.73000	-0.02277	-0.02787	-0.02949	-0.02462	-0.00879	0.00009
0.61600	0.00029	0.00029	0.00055	0.00016	-3.96880	-89.73000	-0.02277	-0.02787	-0.02949	-0.02462	-0.00879	0.00009
0.61800	0.00029	0.00029	0.00055	0.00016	-3.96880	-89.73000	-0.02277	-0.02787	-0.02949	-0.02462	-0.00879	0.00009
0.62000	0.00089	0.00205	0.00036	-0.00023	-3.96880	-89.82000	-0.00148	-0.01602	-0.03698	-0.02153	-0.00928	-0.00120
0.62200	0.00089	0.00205	0.00036	-0.00023	-3.96880	-89.73000	-0.00148	-0.01602	-0.03698	-0.02153	-0.00928	-0.00120
0.62400	0.00089	0.00205	0.00036	-0.00023	-3.96880	-89.73000	-0.00148	-0.01602	-0.03698	-0.02153	-0.00928	-0.00120
0.62600	0.00089	0.00205	0.00036	-0.00023	-3.96880	-89.82000	-0.00148	-0.01602	-0.03698	-0.02153	-0.00928	-0.00120
0.62800	0.00078	0.00082	0.00064	-0.00003	-3.96880	-89.91000	-0.00867	-0.03383	-0.03337	-0.02292	-0.00888	0.00019
0.63000	0.00078	0.00082	0.00064	-0.00003	-3.87860	-89.82000	-0.00867	-0.03383	-0.03337	-0.02292	-0.00888	0.00019
0.63200	0.00078	0.00082	0.00064	-0.00003	-3.96880	-89.82000	-0.00867	-0.03383	-0.03337	-0.02292	-0.00888	0.00019
0.63400	0.00078	0.00082	0.00064	-0.00003	-3.87860	-89.73000	-0.00867	-0.03383	-0.03337	-0.02292	-0.00888	0.00019
0.63600	0.00017	0.00145	0.00046	-0.00016	-3.87860	-89.82000	-0.01950	-0.03090	-0.03026	-0.02826	-0.00663	0.00151
0.63800	0.00017	0.00145	0.00046	-0.00016	-3.78840	-89.82000	-0.01950	-0.03090	-0.03026	-0.02826	-0.00663	0.00151
0.64000	0.00017	0.00145	0.00046	-0.00016	-3.87860	-89.82000	-0.01950	-0.03090	-0.03026	-0.02826	-0.00663	0.00151
0.64200	0.00017	0.00145	0.00046	-0.00016	-3.78840	-89.82000	-0.01950	-0.03090	-0.03026	-0.02826	-0.00663	0.00151
0.64400	0.00041	0.00072	0.00049	0.00034	-3.87860	-89.64000	-0.01845	-0.04299	-0.03128	-0.02662	-0.00438	0.00049
0.64600	0.00041	0.00072	0.00049	0.00034	-3.96880	-89.55000	-0.01845	-0.04299	-0.03128	-0.02662	-0.00438	0.00049
0.64800	0.00041	0.00072	0.00049	0.00034	-3.87860	-89.55000	-0.01845	-0.04299	-0.03128	-0.02662	-0.00438	0.00049
0.65000	0.00041	0.00072	0.00049	0.00034	-3.78840	-89.55000	-0.01845	-0.04299	-0.03128	-0.02662	-0.00438	0.00049
0.65200	0.00134	0.00180	0.00026	0.00004	-3.78840	-89.64000	-0.03953	-0.06025	-0.02461	-0.02613	-0.00364	0.00043
0.65400	0.00134	0.00180	0.00026	0.00004	-3.78840	-89.73000	-0.03953	-0.06025	-0.02461	-0.02613	-0.00364	0.00043
0.65600	0.00134	0.00180	0.00026	0.00004	-3.78840	-89.73000	-0.03953	-0.06025	-0.02461	-0.02613	-0.00364	0.00043
0.65800	0.00134	0.00180	0.00026	0.00004	-3.87860	-89.73000	-0.03953	-0.06025	-0.02461	-0.02613	-0.00364	0.00043
0.66000	0.00067	0.00119	0.00063	-0.00001	-3.87860	-89.73000	-0.04079	-0.04426	-0.02705	-0.02610	0.00105	-0.00062
0.66200	0.00067	0.00119	0.00063	-0.00001	0.00000	0.00000	-0.04079	-0.04426	-0.02705	-0.02610	0.00105	-0.00062
0.66400	0.00067	0.00119	0.00063	-0.00001	-3.87860	-89.73000	-0.04079	-0.04426	-0.02705	-0.02610	0.00105	-0.00062
0.66600	0.00067	0.00119	0.00063	-0.00001	-3.87860	-89.73000	-0.04079	-0.04426	-0.02705	-0.02610	0.00105	-0.00062
0.66800	0.00062	0.00119	0.00047	0.00002	-3.87860	-89.73000	-0.04079	-0.04426	-0.02705	-0.02610	0.00105	-0.00062
0.67000	0.00037	0.00043	0.00065	0.00015	-3.87860	-89.82000	-0.04842	-0.03713	-0.01709	-0.02514	0.00025	0.00176
0.67200	0.00037	0.00043	0.00065	0.00015	-3.78840	-89.91000	-0.04842	-0.03713	-0.01709	-0.02514	0.00025	0.00176
0.67400	0.00037	0.00043	0.00065	0.00015	-3.87860	-89.82000	-0.04842	-0.03713	-0.01709	-0.02514	0.00025	0.00176
0.67600	0.00037	0.00043	0.00065	0.00015	-3.96880	-89.82000	-0.04842	-0.03713	-0.01709	-0.02514	0.00025	0.00176
0.67800	-0.00002	0.00174	0.00019	-0.00008	-3.96880	-89.82000	-0.03922	-0.01880	-0.00895	-0.02326	0.00086	-0.00040
0.68000	-0.00002	0.00174	0.00019	-0.00008	-3.96880	-89.73000	-0.03922	-0.01880	-0.00895	-0.02326	0.00086	-0.00040
0.68200	-0.00002	0.00174	0.00019	-0.00008	-3.87860	-89.73000	-0.03922	-0.01880	-0.00895	-0.02326	0.00086	-0.00040
0.68400	-0.00002	0.00174	0.00019	-0.00008	-3.87860	-89.73000	-0.03922	-0.01880	-0.00895	-0.02326	0.00086	-0.00040
0.68600	0.00165	0.00063	0.00064	0.00014	-3.87860	-89.73000	-0.02953	-0.02241	-0.01354	-0.02585	-0.00429	0.00484
0.68800	0.00165	0.00063	0.00064	0.00014	-3.78840	-89.73000	-0.02953	-0.02241	-0.01354	-0.02585	-0.00429	0.00484
0.69000	0.00165	0.00063	0.00064	0.00014	0.00000	0.00000	-0.02953	-0.02241	-0.01354	-0.02585	-0.00429	0.00484
0.69200	0.00165	0.00063	0.00064	0.00014	-3.87860	-89.73000	-0.02953	-0.02241	-0.01354	-0.02585	-0.00429	0.00484
0.69400	0.00035	0.00162	0.00044	-0.00002	-3.87860	-89.73000	-0.04153	-0.02738	-0.00780	-0.02564	-0.00472	-0.00071
0.69600	0.00035	0.00162	0.00044	-0.00002	-3.87860	-89.82000	-0.04153	-0.02738	-0.00780	-0.02564	-0.00472	-0.00071
0.69800	0.00035	0.00162	0.00044	-0.00002	-3.96880	-89.73000	-0.04153	-0.02738	-0.00780	-0.02564	-0.00472	-0.00071
0.70000	0.00035	0.00162	0.00044	-0.00002	-3.78840	-89.73000	-0.04153	-0.02738	-0.00780	-0.02564	-0.00472	-0.00071
0.70200	0.00079	0.00079	0.00056	-0.00009	-3.78840	-89.82000	-0.01398	-0.02648	-0.00935	-0.02514	-0.00531	0.00207
0.70400	0.00079	0.00079	0.00056	-0.00009	-3.78840	-89.82000	-0.01398	-0.02648	-0.00935	-0.02514	-0.00531	0.00207
0.70600	0.00079	0.00079	0.00056	-0.00009	-3.78840	-89.91000	-0.01398	-0.02648	-0.00935	-0.02514	-0.00531	0.00207
0.70800	0.00079	0.00079	0.00056	-0.00009	-3.87860	-89.91000	-0.01398	-0.02648	-0.00935	-0.02514	-0.00531	0.00207
0.71000	0.00028	0.00127	0.00040	-0.00010	-3.78840	-89.91000	-0.02947	-0.04377	-0.01737	-0.02696	-0.00447	0.00031
0.71200	0.00233	0.00065	-0.00008	-0.00011	-3.78840	-89.91000	-0.02947	-0.04377	-0.01737	-0.02696	-0.00447	0.00031
0.71400	0.00233	0.00065	-0.00008	-0.00011	-3.78840	-89.91000	-0.02947	-0.04377	-0.01737	-0.02696	-0.00447	0.00031
0.71600	0.00233	0.00065	-0.00008	-0.00011	-3.87860	-89.82000	-0.02947	-0.04377	-0.01737	-0.02696	-0.00447	0.00031
0.71800	0.00233	0.00065	-0.00008	-0.00011	-3.87860	-89.82000	-0.02947	-0.04377	-0.01737	-0.02696	-0.00447	0.00031
0.72000	0.00165	0.00056	0.00031	-0.00023	-3.87860	-89.73000	-0.02456	-0.02679	-0.02295	-0.02724	-0.00071	0.00019
0.72200	0.00165	0.00056	0.00031	-0.00023	-3.96880	-89.73000	-0.02456	-0.02679	-0.02295	-0.02724	-0.00071	0.00019
0.72400	0.00165	0.00056	0.00031	-0.00023	-3.96880	-89.73000	-0.02456	-0.02679	-0.02295	-0.02724	-0.00071	0.00019
0.72600	0.00165	0.00056	0.00031	-0.00023	0.00000	0.00000	-0.02456	-0.02679	-0.02295	-0.02724	-0.00071	0.00019
0.72800	-0.00001	0.00217	0.00026	-0.00007	-3.87860	-89.73000	-0.02987	-0.03259	-0.01169	-0.02662	-0.00506	0.00052
0.73000	-0.00001	0.00217	0.00026	-0.00007	-3.87860	-89.82000	-0.02987	-0.03259	-0.01169	-0.02662	-0.00506	0.00052
0.73200	-0.00001	0.00217	0.00026	-0.00007	-3.78840	-89.73000	-0.02987	-0.03259	-0.01169	-0.02662	-0.00506	0.00052
0.73400	-0.00001	0.00217	0.00026	-0.00007	-3.78840	-89.73000	-0.02987	-0.03259	-0.01169	-0.02662	-0.00506	0.00052
0.73600	0.00039	0.00050	0.00055	-0.00013	-3.78840	-89.73000	-0.02987	-0.03259	-0.01169	-0.02662	-0.00506	0.00052
0.73800	0.00039	0.00050	0.00055	-0.00013	-3.78840	-89.73000	-0.02499	-0.03114	-0.01808	-0.02415	-0.00645	0.00154
0.74000	0.00039	0.00050	0.00055	-0.00013	-3.87860	-89.73000	-0.02499	-0.03114	-0.01808	-0.02415	-0.00645	0.00154
0.74200	0.00035	0.00273	0.00026	0.00040	-3.78840	-89.73000	-0.01892	-0.02833	-0.03014	-0.02560	-0.00389	0.00127
0.74400	0.00328	0.00083	0.00026	0.00019	-3.78840	-89.73000	-0.01892	-0.02833	-0.03014	-0.02560	-0.00389	0.00127
0.74600	0.00328	0.00083	0.00026	0.00019	-3.78840	-89.82000	-0.01892	-0.02833	-0.03014	-0.02560	-0.00389	0.00127
0.74800	0.00328	0.00083	0.00026	0.00019	0.00000	0.00000	-0.01892	-0.02833	-0.03014	-0.02560	-0.00389	0.00127
0.75000	0.00328	0.00083	0.00026	0.00019	-3.78840	-89.64000	-0.01892	-0.02833	-0.03014	-0.02560	-0.00389	0.00127
0.75200	0.00149	0.00040	0.00065	0.00034	-3.78840	-89.73000	-0.04237	-0.04028	-0.02292	-0.02635	-0.00318	-0.00043
0.75400	0.00149	0.00040	0.00065	0.00034	-3.87860	-89.73000	-0.04237	-0.04028	-0.02292	-0.02635	-0.00318	-0.00043
0.75600	0.00149	0.00040	0.00065	0.00034	-3.87860	-89.64000	-0.04237	-0.04028	-0.02292	-0.02635	-0.00318	-0.00043
0.75800	0.00149	0.00040	0.00065	0.00034	-3.78840	-89.73000	-0.04237	-0.04028	-0.02292	-0.02635	-0.00318	-0.00043
0.76000	0.00030	0.00211	0.00031	0.00023	-3.78840	-89.73000	-0.02694	-0.03642	-0.02828	-0.02604	-0.00099	-0.00105
0.76200	0.00030	0.00211	0.00031	0.00023	-3.78840	-89.73000	-0.02694	-0.03642	-0.02828	-0.02604	-0.00099	-0.00105
0.76400	0.00030	0.00211	0.00031	0.00023	-3.78840	-89.73000	-0.02694	-0.03642	-0.02828	-0.02604	-0.00099	-0.00105
0.76600	0.00030	0.00211	0.00031	0.00023	-3.78840	-89.73000	-0.02694	-0.03642	-0.02828	-0.02604	-0.00099	-0.00105
0.76800	0.00060	0.00065	0.00054	0.00033	-3.78840	-89.73000	-0.02222	-0.04185	-0.01767	-0.02715	-0.00364	0.00022
0.77000	0.00060	0.00065	0.00054	0.00033	-3.87860	-89.82000	-0.02222	-0.04185	-0.01767	-0.02715	-0.00364	0.00022
0.77200	0.00060	0.00065	0.00054	0.00033	-3.87860	-89.82000	-0.02222	-0.04185	-0.01767	-0.02715	-0.00364	0.00022
0.77400	0.00060	0.00065	0.00054	0.00033	-3.69820	-89.91000	-0.02222	-0.04185	-0.01767	-0.02715	-0.00364	0.00022
0.77600	0.00112	0.00172	0.00032	-0.00013	-3.69820	-89.82000	-0.02521	-0.03120	-0.02936	-0.02419	-0.00645	-0.00012
0.77800	0.00112	0.00172	0.00032	-0.00013	-3.78840	-89.82000	-0.02521	-0.03120	-0.02936	-0.02419	-0.00645	-0.00012
0.78000	0.00112	0.00172	0.00032	-0.00013	-3.87860	-89.73000	-0.02521	-0.03120	-0.02936	-0.02419	-0.00645	-0.00012
0.78200	0.00112	0.00172	0.00032	-0.00013	-3.87860	-89.82000	-0.02521	-0.03120	-0.02936	-0.02419	-0.00645	-0.00012
0.78400	0.00074	0.00051	0.00038	-0.00022	-3.87860	-89.82000	-0.00571	-0.02065	-0.02363	-0.02335	-0.00645	0.00059
0.78600	0.00074	0.00051	0.00038	-0.00022	-3.87860	-89.73000	-0.00571	-0.02065	-0.02363	-0.02335	-0.00645	0.00059
0.78800	0.00074	0.00051	0.00038	-0.00022	-3.96880	-89.64000	-0.00571	-0.02065	-0.02363	-0.02335	-0.00645	0.00059
0.79000	0.00074	0.00051	0.00038	-0.00022	-3.87860	-89.64000	-0.00571	-0.02065	-0.02363	-0.02335	-0.00645	0.00059
0.79200	0.00060	0.00178	0.00038	-0.00005	-3.78840	-89.64000	-0.02012	-0.03898	-0.02267	-0.02196	-0.00882	0.00157
0.79400	0.00060	0.00178	0.00038	-0.00005	-3.78840	-89.64000	-0.02012	-0.03898	-0.02267	-0.02196	-0.00882	0.00157
0.79600	0.00060	0.00178	0.00038	-0.00005	-3.78840	-89.73000	-0.02012	-0.03898	-0.02267	-0.02196	-0.00882	0.00157
0.79800	0.00060	0.00178	0.00038	-0.00005	-3.78840	-89.64000	-0.02012	-0.03898	-0.02267	-0.02196	-0.00882	0.00157
0.80000	0.00012	0.00059	0.00029	0.00011	-3.78840	-89.64000	-0.01623	-0.02228	-0.02215	-0.02323	-0.00438	0.00037
0.80200	0.00012	0.00059	0.00029	0.00011	-3.78840	-89.82000	-0.01623	-0.02228	-0.02215	-0.02323	-0.00438	0.00037
0.80400	0.00012	0.00059	0.00029	0.00011	-3.78840	-89.64000	-0.01623	-0.02228	-0.02215	-0.02323	-0.00438	0.00037
0.80600	0.00012	0.00059	0.00029	0.00011	-3.78840	-89.64000	-0.01623	-0.02228	-0.02215	-0.02323	-0.00438	0.00037
0.80800	0.00124	0.00176	0.00071	-0.00008	-3.96880	-89.73000	-0.02197	-0.03247	-0.02218	-0.02446	-0.00367	-0.00034
0.81000	0.00124	0.00176	0.00071	-0.00008	-3.96880	-89.82000	-0.02197	-0.03247	-0.02218	-0.02446	-0.00367	-0.00034
0.81200	0.00124	0.00176	0.00071	-0.00008	-3.87860	-89.64000	-0.02197	-0.03247	-0.02218	-0.02446	-0.00367	-0.00034
0.81400	0.00124	0.00176	0.00071	-0.00008	0.00000	0.00000	-0.02197	-0.03247	-0.02218	-0.02446	-0.00367	-0.00034
0.81600	0.00088	0.00056	0.00039	-0.00000	-3.87860	-89.73000	-0.03438	-0.03108	-0.02344	-0.02048	-0.00278	-0.00034
0.81800	0.00088	0.00056	0.00039	-0.00000	-3.87860	-89.64000	-0.03438	-0.03108	-0.02344	-0.02048	-0.00278	-0.00034
0.82000	0.00088	0.00056	0.00039	-0.00000	-3.87860	-89.64000	-0.03438	-0.03108	-0.02344	-0.02048	-0.00278	-0.00034
0.82200	0.00088	0.00056	0.00039	-0.00000	-3.87860	-89.64000	-0.03438	-0.03108	-0.02344	-0.02048	-0.00278	-0.00034
0.82400	0.00051	0.00137	0.00040	0.00029	-3.96880	-89.64000	-0.02432	-0.00713	-0.02332	-0.01974	0.00062	0.00040
0.82600	0.00051	0.00137	0.00040	0.00029	-3.87860	-89.73000	-0.02432	-0.00713	-0.02332	-0.01974	0.00062	0.00040
0.82800	0.00051	0.00137	0.00040	0.00029	-3.87860	-89.73000	-0.02432	-0.00713	-0.02332	-0.01974	0.00062	0.00040
0.83000	0.00051	0.00137	0.00040	0.00029	-3.87860	-89.73000	-0.02432	-0.00713	-0.02332	-0.01974	0.00062	0.00040
0.83200	-0.00011	0.00099	0.00038	0.00011	-3.78840	-89.73000	-0.03990	-0.01732	-0.01965	-0.02085	-0.00200	-0.00025
0.83400	-0.00011	0.00099	0.00038	0.00011	-3.78840	-89.73000	-0.03990	-0.01732	-0.01965	-0.02085	-0.00200	-0.00025
0.83600	-0.00011	0.00099	0.00038	0.00011	0.00000	0.00000	-0.03990	-0.01732	-0.01965	-0.02085	-0.00200	-0.00025
0.83800	-0.00011	0.00099	0.00038	0.00011	-3.78840	-89.73000	-0.03990	-0.01732	-0.01965	-0.02085	-0.00200	-0.00025
0.84000	0.00183	0.00138	0.00020	-0.00006	-3.78840	-89.73000	-0.02496	-0.02028	-0.01882	-0.02061	0.00059	-0.00120
0.84200	0.00183	0.00138	0.00020	-0.00006	-3.87860	-89.82000	-0.02496	-0.02028	-0.01882	-0.02061	0.00059	-0.00120
0.84400	0.00183	0.00138	0.00020	-0.00006	-3.87860	-89.82000	-0.02496	-0.02028	-0.01882	-0.02061	0.00059	-0.00120
0.84600	0.00183	0.00138	0.00020	-0.00006	-3.96880	-89.82000	-0.02496	-0.02028	-0.01882	-0.02061	0.00059	-0.00120
0.84800	0.00039	0.00065	0.00003	-0.00006	-3.87860	-89.73000	-0.02743	-0.02769	-0.00756	-0.01919	-0.00167	0.00009
0.85000	0.00039	0.00065	0.00003	-0.00006	-3.78840	-89.82000	-0.02743	-0.02769	-0.00756	-0.01919	-0.00167	0.00009
0.85200	0.00039	0.00065	0.00003	-0.00006	-3.78840	-89.82000	-0.02743	-0.02769	-0.00756	-0.01919	-0.00167	0.00009
0.85400	0.00039	0.00065	0.00003	-0.00006	-3.78840	-89.82000	-0.02743	-0.02769	-0.00756	-0.01919	-0.00167	0.00009
0.85600	0.00030	0.00099	0.00040	-0.00006	-3.78840	-89.82000	-0.03638	-0.01707	-0.01225	-0.02230	0.00160	-0.00154
0.85800	0.00030	0.00099	0.00040	-0.00006	-3.87860	-89.82000	-0.03638	-0.01707	-0.01225	-0.02230	0.00160	-0.00154
0.86000	0.00030	0.00099	0.00040	-0.00006	-3.87860	-89.82000	-0.03638	-0.01707	-0.01225	-0.02230	0.00160	-0.00154
0.86200	0.00030	0.00099	0.00040	-0.00006	-3.87860	-89.82000	-0.03638	-0.01707	-0.01225	-0.02230	0.00160	-0.00154
0.86400	0.00043	0.00087	0.00039	-0.00016	-3.87860	-89.82000	-0.00793	-0.00145	-0.01160	-0.01657	-0.00176	-0.00086
0.86600	0.00043	0.00087	0.00039	-0.00016	-3.87860	-89.82000	-0.00793	-0.00145	-0.01160	-0.01657	-0.00176	-0.00086
0.86800	0.00043	0.00087	0.00039	-0.00016	-3.87860	-89.82000	-0.00793	-0.00145	-0.01160	-0.01657	-0.00176	-0.00086
0.87000	0.00043	0.00087	0.00039	-0.00016	-3.87860	-89.82000	-0.00793	-0.00145	-0.01160	-0.01657	-0.00176	-0.00086
0.87200	0.00166	0.00134	0.00031	-0.00014	-3.87860	-89.82000	-0.01956	-0.00802	-0.01360	-0.01536	-0.00333	-0.00056
0.87400	0.00166	0.00134	0.00031	-0.00014	-3.96880	-89.73000	-0.01956	-0.00802	-0.01360	-0.01536	-0.00333	-0.00056
0.87600	0.00166	0.00134	0.00031	-0.00014	-3.96880	-89.73000	-0.01956	-0.00802	-0.01360	-0.01536	-0.00333	-0.00056
0.87800	0.00166	0.00134	0.00031	-0.00014	-3.96880	-89.82000	-0.01956	-0.00802	-0.01360	-0.01536	-0.00333	-0.00056
0.88000	0.00072	0.00150	0.00044	-0.00006	-3.87860	-89.82000	-0.02277	0.00963	-0.01829	-0.01558	-0.00077	-0.00102
0.88200	0.00072	0.00150	0.00044	-0.00006	-3.78840	-89.82000	-0.02277	0.00963	-0.01829	-0.01558	-0.00077	-0.00102
0.88400	0.00072	0.00150	0.00044	-0.00006	-3.78840	-89.82000	-0.02277	0.00963	-0.01829	-0.01558	-0.00077	-0.00102
0.88600	0.00072	0.00150	0.00044	-0.00006	-3.87860	-89.73000	-0.02277	0.00963	-0.01829	-0.01558	-0.00077	-0.00102
0.88800	0.00001	0.00089	0.00029	-0.00006	-3.87860	-89.73000	-0.02373	-0.00846	-0.00876	-0.01755	0.00012	-0.00046
0.89000	0.00001	0.00089	0.00029	-0.00006	-3.87860	-89.82000	-0.02373	-0.00846	-0.00876	-0.01755	0.00012	-0.00046
0.89200	0.00001	0.00089	0.00029	-0.00006	-3.96880	-89.82000	-0.02373	-0.00846	-0.00876	-0.01755	0.00012	-0.00046
0.89400	0.00001	0.00089	0.00029	-0.00006	-3.87860	-89.82000	-0.02373	-0.00846	-0.00876	-0.01755	0.00012	-0.00046
0.89600	0.00045	0.00130	0.00030	-0.00005	-3.78840	-89.82000	-0.02552	-0.01185	-0.01379	-0.01163	-0.00376	0.00043
0.89800	0.00045	0.00130	0.00030	-0.00005	-3.87860	-89.91000	-0.02552	-0.01185	-0.01379	-0.01163	-0.00376	0.00043
0.90000	0.00045	0.00130	0.00030	-0.00005	0.00000	0.00000	-0.02552	-0.01185	-0.01379	-0.01163	-0.00376	0.00043
0.90200	0.00045	0.00130	0.00030	-0.00005	0.00000	0.00000	-0.02552	-0.01185	-0.01379	-0.01163	-0.00376	0.00043
0.90400	0.00154	0.00073	0.00029	-0.00022	-3.96880	-89.82000	-0.01207	-0.00448	-0.02175	-0.01475	0.00043	0.00083
0.90600	0.00154	0.00073	0.00029	-0.00022	-3.96880	-89.82000	-0.01207	-0.00448	-0.02175	-0.01475	0.00043	0.00083
0.90800	0.00154	0.00073	0.00029	-0.00022	-3.96880	-89.73000	-0.01207	-0.00448	-0.02175	-0.01475	0.00043	0.00083
0.91000	0.00154	0.00073	0.00029	-0.00022	-3.87860	-89.64000	-0.01207	-0.00448	-0.02175	-0.01475	0.00043	0.00083
0.91200	0.00062	0.00154	0.00032	-0.00022	-3.78840	-89.55000	-0.03434	-0.00546	-0.01952	-0.01370	-0.00200	0.00003
0.91400	0.00062	0.00154	0.00032	-0.00022	-3.78840	-89.55000	-0.03434	-0.00546	-0.01952	-0.01370	-0.00200	0.00003
0.91600	0.00062	0.00154	0.00032	-0.00022	-3.78840	-89.64000	-0.03434	-0.00546	-0.01952	-0.01370	-0.00200	0.00003
0.91800	0.00062	0.00154	0.00032	-0.00022	-3.78840	-89.82000	-0.03434	-0.00546	-0.01952	-0.01370	-0.00200	0.00003
0.92000	0.00012	0.00090	0.00044	-0.00008	-3.87860	-89.82000	-0.00719	0.00849	-0.01012	-0.01114	-0.00216	0.00022
0.92200	0.00012	0.00090	0.00044	-0.00008	-3.87860	-89.73000	-0.00719	0.00849	-0.01012	-0.01114	-0.00216	0.00022
0.92400	0.00012	0.00090	0.00044	-0.00008	0.00000	0.00000	-0.00719	0.00849	-0.01012	-0.01114	-0.00216	0.00022
0.92600	0.00012	0.00090	0.00044	-0.00008	-3.96880	-89.73000	-0.00719	0.00849	-0.01012	-0.01114	-0.00216	0.00022
0.92800	0.00020	0.00163	0.00042	-0.00028	-3.87860	-89.82000	0.00068	-0.00262	-0.01333	-0.01305	-0.00379	-0.00086
0.93000	0.00020	0.00163	0.00042	-0.00028	-3.87860	-89.91000	0.00068	-0.00262	-0.01333	-0.01305	-0.00379	-0.00086
0.93200	0.00020	0.00163	0.00042	-0.00028	-3.96880	-89.82000	0.00068	-0.00262	-0.01333	-0.01305	-0.00379	-0.00086
0.93400	0.00020	0.00163	0.00042	-0.00028	-3.96880	-89.82000	0.00068	-0.00262	-0.01333	-0.01305	-0.00379	-0.00086
0.93600	0.00184	0.00049	0.00036	0.00013	-3.78840	-89.82000	-0.01052	0.00731	-0.01832	-0.00876	-0.00672	-0.00222
0.93800	0.00184	0.00049	0.00036	0.00013	-3.87860	-89.73000	-0.01052	0.00731	-0.01832	-0.00876	-0.00672	-0.00222
0.94000	0.00184	0.00049	0.00036	0.00013	-3.87860	-89.73000	-0.01052	0.00731	-0.01832	-0.00876	-0.00672	-0.00222
0.94200	0.00184	0.00049	0.00036	0.00013	-3.87860	-89.82000	-0.01052	0.00731	-0.01832	-0.00876	-0.00672	-0.00222
0.94400	0.00056	0.00167	0.00020	0.00002	-3.87860	-89.82000	0.01996	0.00630	-0.02613	-0.01080	-0.00916	-0.00003
0.94600	0.00056	0.00167	0.00020	0.00002	-3.78840	-89.82000	0.01996	0.00630	-0.02613	-0.01080	-0.00916	-0.00003
0.94800	0.00056	0.00167	0.00020	0.00002	-3.78840	-89.82000	0.01996	0.00630	-0.02613	-0.01080	-0.00916	-0.00003
0.95000	0.00056	0.00167	0.00020	0.00002	-3.87860	-89.73000	0.01996	0.00630	-0.02613	-0.01080	-0.00916	-0.00003
0.95200	0.00068	0.00067	0.00038	-0.00014	-3.87860	-89.73000	0.00694	-0.01265	-0.01724	-0.01274	-0.01076	-0.00139
0.95400	0.00068	0.00067	0.00038	-0.00014	-3.87860	-89.73000	0.00694	-0.01265	-0.01724	-0.01274	-0.01076	-0.00139
0.95600	0.00068	0.00067	0.00038	-0.00014	-3.96880	-89.73000	0.00694	-0.01265	-0.01724	-0.01274	-0.01076	-0.00139
0.95800	0.00068	0.00067	0.00038	-0.00014	-3.87860	-89.64000	0.00694	-0.01265	-0.01724	-0.01274	-0.01076	-0.00139
0.96000	0.00026	0.00135	0.00047	0.00004	-3.87860	-89.55000	0.00694	-0.01265	-0.01724	-0.01274	-0.01076	-0.00139
0.96200	0.00168	0.00106	0.00033	-0.00030	-3.87860	-89.73000	0.00827	0.00201	-0.03405	-0.01074	-0.00845	-0.00136
0.96400	0.00168	0.00106	0.00033	-0.00030	-3.87860	-89.73000	0.00827	0.00201	-0.03405	-0.01074	-0.00845	-0.00136
0.96600	0.00168	0.00106	0.00033	-0.00030	-3.87860	-89.73000	0.00827	0.00201	-0.03405	-0.01074	-0.00845	-0.00136
0.96800	0.00168	0.00106	0.00033	-0.00030	0.00000	0.00000	0.00827	0.00201	-0.03405	-0.01074	-0.00845	-0.00136
0.97000	0.00137	0.00052	0.00036	-0.00007	-3.69820	-89.64000	-0.00879	0.00216	-0.02609	-0.01107	-0.00651	-0.00077
0.97200	0.00137	0.00052	0.00036	-0.00007	-3.78840	-89.64000	-0.00879	0.00216	-0.02609	-0.01107	-0.00651	-0.00077
0.97400	0.00137	0.00052	0.00036	-0.00007	-3.78840	-89.64000	-0.00879	0.00216	-0.02609	-0.01107	-0.00651	-0.00077
0.97600	0.00137	0.00052	0.00036	-0.00007	-3.78840	-89.73000	-0.00879	0.00216	-0.02609	-0.01107	-0.00651	-0.00077
0.97800	0.00063	0.00189	0.00022	-0.00022	-3.78840	-89.82000	-0.00975	0.00611	-0.02332	-0.00898	-0.00287	0.00191
0.98000	0.00063	0.00189	0.00022	-0.00022	-3.69820	-89.82000	-0.00975	0.00611	-0.02332	-0.00898	-0.00287	0.00191
0.98200	0.00063	0.00189	0.00022	-0.00022	-3.78840	-89.82000	-0.00975	0.00611	-0.02332	-0.00898	-0.00287	0.00191
0.98400	0.00063	0.00189	0.00022	-0.00022	-3.78840	-89.82000	-0.00975	0.00611	-0.02332	-0.00898	-0.00287	0.00191
0.98600	0.00037	0.00050	0.00053	-0.00005	-3.78840	-89.73000	-0.00688	0.01614	-0.03137	-0.00685	-0.00318	0.00037
0.98800	0.00037	0.00050	0.00053	-0.00005	-3.87860	-89.82000	-0.00688	0.01614	-0.03137	-0.00685	-0.00318	0.00037
0.99000	0.00037	0.00050	0.00053	-0.00005	-3.87860	-89.82000	-0.00688	0.01614	-0.03137	-0.00685	-0.00318	0.00037
0.99200	0.00037	0.00050	0.00053	-0.00005	-3.96880	-89.82000	-0.00688	0.01614	-0.03137	-0.00685	-0.00318	0.00037
0.99400	0.00046	0.00179	0.00024	-0.00001	-3.96880	-89.82000	-0.01839	-0.00191	-0.01838	-0.01234	-0.00580	-0.00019
0.99600	0.00046	0.00179	0.00024	-0.00001	-3.87860	-89.82000	-0.01839	-0.00191	-0.01838	-0.01234	-0.00580	-0.00019
0.99800	0.00046	0.00179	0.00024	-0.00001	-3.87860	-89.82000	-0.01839	-0.00191	-0.01838	-0.01234	-0.00580	-0.00019
1.00000	0.00046	0.00179	0.00024	-0.00001	-3.96880	-89.91000	-0.01839	-0.00191	-0.01838	-0.01234	-0.00580	-0.00019
1.00200	0.00139	0.00035	0.00054	0.00036	-3.96880	-89.73000	0.00117	0.00040	-0.01212	-0.01286	-0.00327	-0.00136
1.00400	0.00139	0.00035	0.00054	0.00036	-3.96880	-89.91000	0.00117	0.00040	-0.01212	-0.01286	-0.00327	-0.00136
1.00600	0.00139	0.00035	0.00054	0.00036	-3.96880	-89.82000	0.00117	0.00040	-0.01212	-0.01286	-0.00327	-0.00136
1.00800	0.00139	0.00035	0.00054	0.00036	-3.96880	-89.73000	0.00117	0.00040	-0.01212	-0.01286	-0.00327	-0.00136
1.01000	0.00060	0.00190	0.00038	-0.00015	-3.96880	-89.73000	-0.01740	0.00136	-0.00969	-0.01428	-0.00336	0.00059
1.01200	0.00060	0.00190	0.00038	-0.00015	0.00000	0.00000	-0.01740	0.00136	-0.00969	-0.01428	-0.00336	0.00059
1.01400	0.00060	0.00190	0.00038	-0.00015	-3.96880	-89.82000	-0.01740	0.00136	-0.00969	-0.01428	-0.00336	0.00059
1.01600	0.00060	0.00190	0.00038	-0.00015	-3.96880	-89.73000	-0.01740	0.00136	-0.00969	-0.01428	-0.00336	0.00059
1.01800	-0.00009	0.00020	0.00003	0.00008	-3.96880	-89.64000	-0.01845	0.01080	-0.01841	-0.01052	-0.00253	0.00077
1.02000	-0.00009	0.00020	0.00003	0.00008	-3.96880	-89.64000	-0.01845	0.01080	-0.01841	-0.01052	-0.00253	0.00077
1.02200	-0.00009	0.00020	0.00003	0.00008	-3.96880	-89.64000	-0.01845	0.01080	-0.01841	-0.01052	-0.00253	0.00077
1.02400	-0.00009	0.00020	0.00003	0.00008	-3.96880	-89.73000	-0.01845	0.01080	-0.01841	-0.01052	-0.00253	0.00077
1.02600	0.00117	0.00173	0.00032	-0.00011	-3.96880	-89.64000	-0.00568	0.00488	-0.00358	-0.01647	-0.00373	0.00176
1.02800	0.00117	0.00173	0.00032	-0.00011	-3.87860	-89.64000	-0.00568	0.00488	-0.00358	-0.01647	-0.00373	0.00176
1.03000	0.00117	0.00173	0.00032	-0.00011	-3.78840	-89.73000	-0.00568	0.00488	-0.00358	-0.01647	-0.00373	0.00176
1.03200	0.00117	0.00173	0.00032	-0.00011	-3.69820	-89.82000	-0.00568	0.00488	-0.00358	-0.01647	-0.00373	0.00176
1.03400	0.00113	0.00101	0.00047	-0.00008	0.00000	0.00000	-0.02142	-0.00145	-0.00780	-0.01274	-0.00506	0.00096
1.03600	0.00113	0.00101	0.00047	-0.00008	-3.69820	-89.82000	-0.02142	-0.00145	-0.00780	-0.01274	-0.00506	0.00096
1.03800	0.00113	0.00101	0.00047	-0.00008	-3.78840	-89.82000	-0.02142	-0.00145	-0.00780	-0.01274	-0.00506	0.00096
1.04000	0.00113	0.00101	0.00047	-0.00008	-3.87860	-89.91000	-0.02142	-0.00145	-0.00780	-0.01274	-0.00506	0.00096
1.04200	0.00011	0.00140	0.00038	-0.00004	-3.78840	-89.91000	-0.01207	0.00756	-0.02273	-0.01206	-0.00108	0.00022
1.04400	0.00011	0.00140	0.00038	-0.00004	-3.78840	-89.82000	-0.01207	0.00756	-0.02273	-0.01206	-0.00108	0.00022
1.04600	0.00011	0.00140	0.00038	-0.00004	-3.96880	-89.73000	-0.01207	0.00756	-0.02273	-0.01206	-0.00108	0.00022
1.04800	0.00011	0.00140	0.00038	-0.00004	-3.87860	-89.82000	-0.01207	0.00756	-0.02273	-0.01206	-0.00108	0.00022
1.05000	0.00038	0.00071	0.00024	0.00027	-3.87860	-89.73000	-0.01984	-0.00435	-0.00876	-0.01444	-0.00423	-0.00105
1.05200	0.00038	0.00071	0.00024	0.00027	-3.96880	-89.73000	-0.01984	-0.00435	-0.00876	-0.01444	-0.00423	-0.00105
1.05400	0.00038	0.00071	0.00024	0.00027	-3.96880	-89.73000	-0.01984	-0.00435	-0.00876	-0.01444	-0.00423	-0.00105
1.05600	0.00038	0.00071	0.00024	0.00027	-3.96880	-89.73000	-0.01984	-0.00435	-0.00876	-0.01444	-0.00423	-0.00105
1.05800	0.00095	0.00172	0.00042	0.00010	-3.96880	-89.82000	-0.01318	0.00349	-0.01061	-0.01123	-0.00546	0.00022
1.06000	0.00095	0.00172	0.00042	0.00010	-3.87860	-89.91000	-0.01318	0.00349	-0.01061	-0.01123	-0.00546	0.00022
1.06200	0.00095	0.00172	0.00042	0.00010	-3.87860	-89.82000	-0.01318	0.00349	-0.01061	-0.01123	-0.00546	0.00022
1.06400	0.00095	0.00172	0.00042	0.00010	-3.87860	-89.82000	-0.01318	0.00349	-0.01061	-0.01123	-0.00546	0.00022
1.06600	0.00117	0.00089	0.00020	0.00013	-3.87860	-89.73000	0.00392	0.00540	-0.01536	-0.01512	-0.00592	-0.00015
1.06800	0.00117	0.00089	0.00020	0.00013	-3.96880	-89.73000	0.00392	0.00540	-0.01536	-0.01512	-0.00592	-0.00015
1.07000	0.00117	0.00089	0.00020	0.00013	-3.87860	-89.73000	0.00392	0.00540	-0.01536	-0.01512	-0.00592	-0.00015
1.07200	0.00117	0.00089	0.00020	0.00013	-3.87860	-89.73000	0.00392	0.00540	-0.01536	-0.01512	-0.00592	-0.00015
1.07400	0.00007	0.00123	0.00034	-0.00003	-3.87860	-89.73000	-0.01426	-0.00849	-0.01808	-0.01416	-0.00691	0.00003
1.07600	0.00007	0.00123	0.00034	-0.00003	-3.69820	-89.91000	-0.01426	-0.00849	-0.01808	-0.01416	-0.00691	0.00003
1.07800	0.00007	0.00123	0.00034	-0.00003	-3.78840	-89.91000	-0.01426	-0.00849	-0.01808	-0.01416	-0.00691	0.00003
1.08000	0.00007	0.00123	0.00034	-0.00003	-3.69820	-90.00000	-0.01426	-0.00849	-0.01808	-0.01416	-0.00691	0.00003
1.08200	0.00043	0.00067	0.00029	-0.00026	-3.78840	-89.91000	0.00626	-0.00611	-0.01925	-0.01493	-0.00595	0.00111
1.08400	0.00043	0.00067	0.00029	-0.00026	-3.78840	-89.82000	0.00626	-0.00611	-0.01925	-0.01493	-0.00595	0.00111
1.08600	0.00043	0.00067	0.00029	-0.00026	-3.69820	-89.82000	0.00626	-0.00611	-0.01925	-0.01493	-0.00595	0.00111
1.08800	0.00043	0.00067	0.00029	-0.00026	-3.78840	-89.82000	0.00626	-0.00611	-0.01925	-0.01493	-0.00595	0.00111
1.09000	0.00108	0.00127	0.00046	0.00026	-3.87860	-89.91000	0.00025	-0.02062	-0.02511	-0.01669	-0.00864	-0.00065
1.09200	0.00108	0.00127	0.00046	0.00026	-3.87860	-90.00000	0.00025	-0.02062	-0.02511	-0.01669	-0.00864	-0.00065
1.09400	0.00108	0.00127	0.00046	0.00026	-3.87860	-89.91000	0.00025	-0.02062	-0.02511	-0.01669	-0.00864	-0.00065
1.09600	0.00108	0.00127	0.00046	0.00026	-3.87860	-89.82000	0.00025	-0.02062	-0.02511	-0.01669	-0.00864	-0.00065
1.09800	0.00101	0.00106	0.00050	0.00046	-3.96880	-89.82000	-0.00031	-0.01904	-0.03581	-0.01703	-0.01018	0.00049
1.10000	0.00101	0.00106	0.00050	0.00046	-3.96880	-89.82000	-0.00031	-0.01904	-0.03581	-0.01703	-0.01018	0.00049
1.10200	0.00101	0.00106	0.00050	0.00046	-3.87860	-89.73000	-0.00031	-0.01904	-0.03581	-0.01703	-0.01018	0.00049
1.10400	0.00101	0.00106	0.00050	0.00046	-3.78840	-89.73000	-0.00031	-0.01904	-0.03581	-0.01703	-0.01018	0.00049
1.10600	0.00013	0.00111	0.00019	-0.00006	-3.87860	-89.82000	0.00889	-0.00648	-0.03606	-0.01697	-0.01265	-0.00071
1.10800	0.00013	0.00111	0.00019	-0.00006	-3.87860	-89.91000	0.00889	-0.00648	-0.03606	-0.01697	-0.01265	-0.00071
1.11000	0.00013	0.00111	0.00019	-0.00006	-3.87860	-89.82000	0.00889	-0.00648	-0.03606	-0.01697	-0.01265	-0.00071
1.11200	0.00013	0.00111	0.00019	-0.00006	-3.87860	-89.73000	0.00889	-0.00648	-0.03606	-0.01697	-0.01265	-0.00071
1.11400	0.00037	0.00112	0.00033	-0.00006	0.00000	0.00000	0.00179	-0.01241	-0.03109	-0.01422	-0.01212	0.00022
1.11600	0.00037	0.00112	0.00033	-0.00006	-3.78840	-89.73000	0.00179	-0.01241	-0.03109	-0.01422	-0.01212	0.00022
1.11800	0.00037	0.00112	0.00033	-0.00006	-3.69820	-89.82000	0.00179	-0.01241	-0.03109	-0.01422	-0.01212	0.00022
1.12000	0.00037	0.00112	0.00033	-0.00006	-3.78840	-89.82000	0.00179	-0.01241	-0.03109	-0.01422	-0.01212	0.00022
1.12200	0.00184	0.00115	0.00045	0.00011	-3.87860	-89.82000	0.00947	0.00494	-0.04099	-0.01385	-0.00907	0.00197
1.12400	0.00184	0.00115	0.00045	0.00011	-3.87860	-89.82000	0.00947	0.00494	-0.04099	-0.01385	-0.00907	0.00197
1.12600	0.00184	0.00115	0.00045	0.00011	0.00000	0.00000	0.00947	0.00494	-0.04099	-0.01385	-0.00907	0.00197
1.12800	0.00184	0.00115	0.00045	0.00011	-3.78840	-89.73000	0.00947	0.00494	-0.04099	-0.01385	-0.00907	0.00197
1.13000	0.00071	0.00123	0.00021	-0.00020	-3.78840	-89.73000	-0.00361	-0.01265	-0.03371	-0.01789	-0.00981	0.00086
1.13200	0.00071	0.00123	0.00021	-0.00020	-3.87860	-89.82000	-0.00361	-0.01265	-0.03371	-0.01789	-0.00981	0.00086
1.13400	0.00071	0.00123	0.00021	-0.00020	-3.78840	-89.91000	-0.00361	-0.01265	-0.03371	-0.01789	-0.00981	0.00086
1.13600	0.00071	0.00123	0.00021	-0.00020	-3.78840	-89.91000	-0.00361	-0.01265	-0.03371	-0.01789	-0.00981	0.00086
1.13800	0.00010	0.00060	0.00054	-0.00022	-3.78840	-89.91000	-0.01071	-0.02793	-0.02640	-0.01811	-0.00938	0.00093
1.14000	0.00010	0.00060	0.00054	-0.00022	-3.87860	-89.91000	-0.01071	-0.02793	-0.02640	-0.01811	-0.00938	0.00093
1.14200	0.00010	0.00060	0.00054	-0.00022	-3.96880	-90.00000	-0.01071	-0.02793	-0.02640	-0.01811	-0.00938	0.00093
1.14400	0.00010	0.00060	0.00054	-0.00022	-3.87860	-89.82000	-0.01071	-0.02793	-0.02640	-0.01811	-0.00938	0.00093
1.14600	0.00028	0.00155	0.00039	-0.00006	-3.78840	-89.73000	-0.00349	-0.03580	-0.02579	-0.02061	-0.00685	0.00216
1.14800	0.00028	0.00155	0.00039	-0.00006	-3.78840	-89.73000	-0.00349	-0.03580	-0.02579	-0.02061	-0.00685	0.00216
1.15000	0.00028	0.00155	0.00039	-0.00006	-3.78840	-89.73000	-0.00349	-0.03580	-0.02579	-0.02061	-0.00685	0.00216
1.15200	0.00028	0.00155	0.00039	-0.00006	-3.78840	-89.82000	-0.00349	-0.03580	-0.02579	-0.02061	-0.00685	0.00216
1.15400	0.00183	0.00085	0.00047	0.00000	-3.78840	-89.82000	-0.03101	-0.03796	-0.03846	-0.02150	-0.00493	0.00071
1.15600	0.00183	0.00085	0.00047	0.00000	-3.78840	-89.82000	-0.03101	-0.03796	-0.03846	-0.02150	-0.00493	0.00071
1.15800	0.00183	0.00085	0.00047	0.00000	0.00000	0.00000	-0.03101	-0.03796	-0.03846	-0.02150	-0.00493	0.00071
1.16000	0.00183	0.00085	0.00047	0.00000	-3.78840	-89.82000	-0.03101	-0.03796	-0.03846	-0.02150	-0.00493	0.00071
1.16200	0.00038	0.00151	0.00028	0.00012	-3.87860	-89.82000	-0.01240	-0.01994	-0.03467	-0.01839	-0.00598	0.00142
1.16400	0.00038	0.00151	0.00028	0.00012	-3.96880	-89.91000	-0.01240	-0.01994	-0.03467	-0.01839	-0.00598	0.00142
1.16600	0.00038	0.00151	0.00028	0.00012	-3.96880	-89.82000	-0.01240	-0.01994	-0.03467	-0.01839	-0.00598	0.00142
1.16800	0.00038	0.00151	0.00028	0.00012	-3.96880	-89.82000	-0.01240	-0.01994	-0.03467	-0.01839	-0.00598	0.00142
1.17000	0.00055	0.00078	0.00053	0.00003	-3.96880	-89.82000	-0.01626	-0.02833	-0.01237	-0.02039	-0.00787	-0.00096
1.17200	0.00055	0.00078	0.00053	0.00003	-3.78840	-89.73000	-0.01626	-0.02833	-0.01237	-0.02039	-0.00787	-0.00096
1.17400	0.00055	0.00078	0.00053	0.00003	-3.78840	-89.64000	-0.01626	-0.02833	-0.01237	-0.02039	-0.00787	-0.00096
1.17600	0.00055	0.00078	0.00053	0.00003	-3.78840	-89.73000	-0.01626	-0.02833	-0.01237	-0.02039	-0.00787	-0.00096
1.17800	0.00006	0.00171	0.00044	-0.00012	-3.69820	-89.64000	-0.02682	-0.01630	-0.02258	-0.02085	-0.00481	0.00114
1.18000	0.00091	0.00084	0.00039	0.00039	0.00000	0.00000	-0.02682	-0.01630	-0.02258	-0.02085	-0.00481	0.00114
1.18200	0.00091	0.00084	0.00039	0.00039	-3.87860	-89.73000	-0.02682	-0.01630	-0.02258	-0.02085	-0.00481	0.00114
1.18400	0.00091	0.00084	0.00039	0.00039	-3.87860	-89.73000	-0.02682	-0.01630	-0.02258	-0.02085	-0.00481	0.00114
1.18600	0.00091	0.00084	0.00039	0.00039	-3.87860	-89.73000	-0.02682	-0.01630	-0.02258	-0.02085	-0.00481	0.00114
1.18800	0.00163	0.00065	0.00069	-0.00019	-3.87860	-89.73000	-0.01580	-0.02102	-0.02576	-0.02150	-0.00571	0.00151
1.19000	0.00163	0.00065	0.00069	-0.00019	-3.87860	-89.73000	-0.01580	-0.02102	-0.02576	-0.02150	-0.00571	0.00151
1.19200	0.00163	0.00065	0.00069	-0.00019	-3.78840	-89.73000	-0.01580	-0.02102	-0.02576	-0.02150	-0.00571	0.00151
1.19400	0.00163	0.00065	0.00069	-0.00019	-3.87860	-89.73000	-0.01580	-0.02102	-0.02576	-0.02150	-0.00571	0.00151
1.19600	0.00035	0.00165	0.00036	-0.00016	-3.96880	-89.82000	-0.02663	-0.02664	-0.00913	-0.02230	-0.00888	-0.00006
1.19800	0.00035	0.00165	0.00036	-0.00016	-3.87860	-89.82000	-0.02663	-0.02664	-0.00913	-0.02230	-0.00888	-0.00006
1.20000	0.00035	0.00165	0.00036	-0.00016	-3.87860	-89.73000	-0.02663	-0.02664	-0.00913	-0.02230	-0.00888	-0.00006
1.20200	0.00035	0.00165	0.00036	-0.00016	0.00000	0.00000	-0.02663	-0.02664	-0.00913	-0.02230	-0.00888	-0.00006
1.20400	0.00022	0.00078	0.00032	0.00002	-3.87860	-89.82000	-0.01278	-0.01127	-0.02366	-0.02230	-0.00586	-0.00009
1.20600	0.00022	0.00078	0.00032	0.00002	-3.96880	-89.82000	-0.01278	-0.01127	-0.02366	-0.02230	-0.00586	-0.00009
1.20800	0.00022	0.00078	0.00032	0.00002	-3.96880	-89.91000	-0.01278	-0.01127	-0.02366	-0.02230	-0.00586	-0.00009
1.21000	0.00022	0.00078	0.00032	0.00002	-3.96880	-89.91000	-0.01278	-0.01127	-0.02366	-0.02230	-0.00586	-0.00009
1.21200	0.00056	0.00151	0.00045	0.00015	-3.96880	-89.91000	-0.03110	-0.01565	-0.02529	-0.02008	-0.00759	0.00191
1.21400	0.00056	0.00151	0.00045	0.00015	-3.87860	-89.91000	-0.03110	-0.01565	-0.02529	-0.02008	-0.00759	0.00191
1.21600	0.00056	0.00151	0.00045	0.00015	-3.87860	-89.91000	-0.03110	-0.01565	-0.02529	-0.02008	-0.00759	0.00191
1.21800	0.00056	0.00151	0.00045	0.00015	-3.87860	-89.73000	-0.03110	-0.01565	-0.02529	-0.02008	-0.00759	0.00191
1.22000	0.00163	0.00032	0.00058	-0.00007	-3.87860	-89.73000	-0.00623	-0.00759	-0.01548	-0.01922	-0.00712	0.00259
1.22200	0.00163	0.00032	0.00058	-0.00007	-3.87860	-89.82000	-0.00623	-0.00759	-0.01548	-0.01922	-0.00712	0.00259
1.22400	0.00163	0.00032	0.00058	-0.00007	-3.87860	-89.82000	-0.00623	-0.00759	-0.01548	-0.01922	-0.00712	0.00259
1.22600	0.00163	0.00032	0.00058	-0.00007	-3.87860	-89.73000	-0.00623	-0.00759	-0.01548	-0.01922	-0.00712	0.00259
1.22800	0.00049	0.00238	0.00029	0.00004	-3.87860	-89.55000	-0.00620	-0.01620	-0.02409	-0.01934	-0.00910	0.00089
1.23000	0.00049	0.00238	0.00029	0.00004	-4.05900	-89.73000	-0.00620	-0.01620	-0.02409	-0.01934	-0.00910	0.00089
1.23200	0.00049	0.00238	0.00029	0.00004	-4.05900	-89.82000	-0.00620	-0.01620	-0.02409	-0.01934	-0.00910	0.00089
1.23400	0.00049	0.00238	0.00029	0.00004	-3.87860	-89.82000	-0.00620	-0.01620	-0.02409	-0.01934	-0.00910	0.00089
1.23600	0.00044	0.00050	0.00050	-0.00007	-3.87860	0.00000	-0.02614	-0.03324	-0.02684	-0.02079	-0.01033	0.00077
1.23800	0.00044	0.00050	0.00050	-0.00007	0.00000	0.00000	-0.02614	-0.03324	-0.02684	-0.02079	-0.01033	0.00077
1.24000	0.00044	0.00050	0.00050	-0.00007	-3.87860	-89.82000	-0.02614	-0.03324	-0.02684	-0.02079	-0.01033	0.00077
1.24200	0.00044	0.00050	0.00050	-0.00007	-3.96880	-89.73000	-0.02614	-0.03324	-0.02684	-0.02079	-0.01033	0.00077
1.24400	0.00079	0.00182	0.00043	-0.00004	-3.96880	-89.73000	-0.00290	-0.02491	-0.03603	-0.02159	-0.00734	0.00012
1.24600	0.00079	0.00182	0.00043	-0.00004	-3.96880	-89.82000	-0.00290	-0.02491	-0.03603	-0.02159	-0.00734	0.00012
1.24800	0.00079	0.00182	0.00043	-0.00004	-4.05900	-89.73000	-0.00290	-0.02491	-0.03603	-0.02159	-0.00734	0.00012
1.25000	0.00079	0.00182	0.00043	-0.00004	-3.96880	-89.82000	-0.00290	-0.02491	-0.03603	-0.02159	-0.00734	0.00012
1.25200	0.00160	0.00046	0.00032	-0.00002	-3.96880	-89.73000	-0.01321	-0.03346	-0.03590	-0.01900	-0.00965	-0.00025
1.25400	0.00160	0.00046	0.00032	-0.00002	-3.96880	-89.73000	-0.01321	-0.03346	-0.03590	-0.01900	-0.00965	-0.00025
1.25600	0.00160	0.00046	0.00032	-0.00002	-3.87860	-89.73000	-0.01321	-0.03346	-0.03590	-0.01900	-0.00965	-0.00025
1.25800	0.00160	0.00046	0.00032	-0.00002	-3.87860	-89.73000	-0.01321	-0.03346	-0.03590	-0.01900	-0.00965	-0.00025
1.26000	0.00028	0.00169	0.00047	-0.00020	0.00000	0.00000	-0.00438	-0.02571	-0.04713	-0.01977	-0.00947	0.00019
1.26200	0.00028	0.00169	0.00047	-0.00020	-3.87860	-89.73000	-0.00438	-0.02571	-0.04713	-0.01977	-0.00947	0.00019
1.26400	0.00028	0.00169	0.00047	-0.00020	-3.96880	-89.73000	-0.00438	-0.02571	-0.04713	-0.01977	-0.00947	0.00019
1.26600	0.00028	0.00169	0.00047	-0.00020	-3.96880	-89.73000	-0.00438	-0.02571	-0.04713	-0.01977	-0.00947	0.00019
1.26800	0.00056	0.00050	0.00041	0.00002	-3.96880	-89.82000	-0.00626	-0.02772	-0.04355	-0.02042	-0.01308	-0.00127
1.27000	0.00056	0.00050	0.00041	0.00002	-3.96880	-89.91000	-0.00626	-0.02772	-0.04355	-0.02042	-0.01308	-0.00127
1.27200	0.00056	0.00050	0.00041	0.00002	-3.87860	-89.82000	-0.00626	-0.02772	-0.04355	-0.02042	-0.01308	-0.00127
1.27400	0.00056	0.00050	0.00041	0.00002	-3.87860	-89.82000	-0.00626	-0.02772	-0.04355	-0.02042	-0.01308	-0.00127
1.27600	0.00130	0.00154	0.00038	-0.00015	-3.87860	-89.82000	-0.01009	-0.02849	-0.03347	-0.02101	-0.01431	-0.00139
1.27800	0.00130	0.00154	0.00038	-0.00015	-3.78840	-89.73000	-0.01009	-0.02849	-0.03347	-0.02101	-0.01431	-0.00139
1.28000	0.00130	0.00154	0.00038	-0.00015	-3.69820	-89.64000	-0.01009	-0.02849	-0.03347	-0.02101	-0.01431	-0.00139
1.28200	0.00130	0.00154	0.00038	-0.00015	0.00000	0.00000	-0.01009	-0.02849	-0.03347	-0.02101	-0.01431	-0.00139
1.28400	0.00113	0.00061	0.00024	-0.00002	-3.78840	-89.73000	0.00707	-0.01982	-0.04988	-0.02092	-0.01178	-0.00031
1.28600	0.00113	0.00061	0.00024	-0.00002	-3.78840	-89.73000	0.00707	-0.01982	-0.04988	-0.02092	-0.01178	-0.00031
1.28800	0.00113	0.00061	0.00024	-0.00002	-3.96880	-89.73000	0.00707	-0.01982	-0.04988	-0.02092	-0.01178	-0.00031
1.29000	0.00113	0.00061	0.00024	-0.00002	-3.96880	-89.82000	0.00707	-0.01982	-0.04988	-0.02092	-0.01178	-0.00031
1.29200	0.00035	0.00119	0.00063	-0.00025	-3.96880	-89.73000	0.00707	-0.01982	-0.04988	-0.02092	-0.01178	-0.00031
1.29400	0.00063	0.00056	0.00022	0.00019	-3.78840	-89.73000	-0.01240	-0.02380	-0.03442	-0.01931	-0.01373	-0.00145
1.29600	0.00063	0.00056	0.00022	0.00019	-3.78840	-89.82000	-0.01240	-0.02380	-0.03442	-0.01931	-0.01373	-0.00145
1.29800	0.00063	0.00056	0.00022	0.00019	-3.87860	-89.82000	-0.01240	-0.02380	-0.03442	-0.01931	-0.01373	-0.00145
1.30000	0.00063	0.00056	0.00022	0.00019	-3.78840	-89.91000	-0.01240	-0.02380	-0.03442	-0.01931	-0.01373	-0.00145
1.30200	0.00069	0.00121	0.00046	0.00023	-3.78840	-89.91000	-0.00006	-0.00386	-0.03754	-0.01777	-0.01212	0.00034
1.30400	0.00069	0.00121	0.00046	0.00023	-3.87860	-89.82000	-0.00006	-0.00386	-0.03754	-0.01777	-0.01212	0.00034
1.30600	0.00069	0.00121	0.00046	0.00023	-3.87860	-89.82000	-0.00006	-0.00386	-0.03754	-0.01777	-0.01212	0.00034
1.30800	0.00069	0.00121	0.00046	0.00023	-3.96880	-89.73000	-0.00006	-0.00386	-0.03754	-0.01777	-0.01212	0.00034
1.31000	0.00187	0.00079	0.00046	-0.00003	-3.96880	-89.73000	-0.00916	-0.01136	-0.02955	-0.01808	-0.01200	0.00157
1.31200	0.00187	0.00079	0.00046	-0.00003	-3.96880	-89.73000	-0.00916	-0.01136	-0.02955	-0.01808	-0.01200	0.00157
1.31400	0.00187	0.00079	0.00046	-0.00003	-3.96880	-89.73000	-0.00916	-0.01136	-0.02955	-0.01808	-0.01200	0.00157
1.31600	0.00187	0.00079	0.00046	-0.00003	-3.87860	-89.82000	-0.00916	-0.01136	-0.02955	-0.01808	-0.01200	0.00157
1.31800	0.00040	0.00093	0.00048	0.00014	-3.87860	-89.82000	-0.00916	-0.01136	-0.02955	-0.01808	-0.01200	0.00157
1.32000	0.00069	0.00172	0.00018	0.00020	-3.87860	-89.73000	-0.01959	-0.00213	-0.03057	-0.01579	-0.00845	0.00204
1.32200	0.00069	0.00172	0.00018	0.00020	-3.96880	-89.82000	-0.01959	-0.00213	-0.03057	-0.01579	-0.00845	0.00204
1.32400	0.00069	0.00172	0.00018	0.00020	-3.87860	-89.82000	-0.01959	-0.00213	-0.03057	-0.01579	-0.00845	0.00204
1.32600	0.00069	0.00172	0.00018	0.00020	-3.87860	-89.82000	-0.01959	-0.00213	-0.03057	-0.01579	-0.00845	0.00204
1.32800	0.00007	0.00039	0.00038	-0.00007	-3.78840	-89.82000	-0.00549	-0.01398	-0.03214	-0.01805	-0.00950	0.00099
1.33000	0.00007	0.00039	0.00038	-0.00007	-3.87860	-89.73000	-0.00549	-0.01398	-0.03214	-0.01805	-0.00950	0.00099
1.33200	0.00007	0.00039	0.00038	-0.00007	-3.87860	-89.73000	-0.00549	-0.01398	-0.03214	-0.01805	-0.00950	0.00099
1.33400	0.00007	0.00039	0.00038	-0.00007	-3.96880	-89.73000	-0.00549	-0.01398	-0.03214	-0.01805	-0.00950	0.00099
1.33600	0.00026	0.00195	0.00032	-0.00008	-3.96880	-89.73000	-0.02308	-0.02114	-0.02403	-0.01644	-0.00975	-0.00015
1.33800	0.00026	0.00195	0.00032	-0.00008	-3.96880	-89.82000	-0.02308	-0.02114	-0.02403	-0.01644	-0.00975	-0.00015
1.34000	0.00026	0.00195	0.00032	-0.00008	-4.05900	-89.82000	-0.02308	-0.02114	-0.02403	-0.01644	-0.00975	-0.00015
1.34200	0.00026	0.00195	0.00032	-0.00008	-3.96880	-89.82000	-0.02308	-0.02114	-0.02403	-0.01644	-0.00975	-0.00015
1.34400	0.00218	0.00062	0.00032	-0.00018	-3.96880	-89.82000	-0.00321	-0.00586	-0.03415	-0.01558	-0.00962	0.00059
1.34600	0.00218	0.00062	0.00032	-0.00018	-3.87860	-89.91000	-0.00321	-0.00586	-0.03415	-0.01558	-0.00962	0.00059
1.34800	0.00218	0.00062	0.00032	-0.00018	-3.87860	-89.82000	-0.00321	-0.00586	-0.03415	-0.01558	-0.00962	0.00059
1.35000	0.00218	0.00062	0.00032	-0.00018	-3.96880	-89.82000	-0.00321	-0.00586	-0.03415	-0.01558	-0.00962	0.00059
1.35200	0.00069	0.00160	0.00053	-0.00009	-3.96880	-89.82000	-0.01734	-0.01028	-0.02588	-0.01660	-0.00787	-0.00114
1.35400	0.00069	0.00160	0.00053	-0.00009	-3.87860	-89.82000	-0.01734	-0.01028	-0.02588	-0.01660	-0.00787	-0.00114
1.35600	0.00069	0.00160	0.00053	-0.00009	-3.78840	-89.73000	-0.01734	-0.01028	-0.02588	-0.01660	-0.00787	-0.00114
1.35800	0.00069	0.00160	0.00053	-0.00009	-3.87860	-89.73000	-0.01734	-0.01028	-0.02588	-0.01660	-0.00787	-0.00114
1.36000	0.00039	0.00100	0.00016	-0.00004	-3.87860	-89.73000	-0.00463	-0.00654	-0.02721	-0.01373	-0.00469	0.00167
1.36200	0.00039	0.00100	0.00016	-0.00004	0.00000	0.00000	-0.00463	-0.00654	-0.02721	-0.01373	-0.00469	0.00167
1.36400	0.00039	0.00100	0.00016	-0.00004	-3.69820	-89.73000	-0.00463	-0.00654	-0.02721	-0.01373	-0.00469	0.00167
1.36600	0.00039	0.00100	0.00016	-0.00004	-3.69820	-89.73000	-0.00463	-0.00654	-0.02721	-0.01373	-0.00469	0.00167
1.36800	0.00050	0.00213	0.00025	-0.00032	-3.78840	-89.73000	-0.01305	-0.00537	-0.02745	-0.01465	-0.00558	-0.00114
1.37000	0.00050	0.00213	0.00025	-0.00032	-3.87860	-89.91000	-0.01305	-0.00537	-0.02745	-0.01465	-0.00558	-0.00114
1.37200	0.00050	0.00213	0.00025	-0.00032	-3.78840	-89.82000	-0.01305	-0.00537	-0.02745	-0.01465	-0.00558	-0.00114
1.37400	0.00050	0.00213	0.00025	-0.00032	-3.78840	-89.82000	-0.01305	-0.00537	-0.02745	-0.01465	-0.00558	-0.00114
1.37600	0.00188	0.00065	0.00044	0.00004	0.00000	0.00000	-0.02425	-0.01105	-0.02764	-0.01098	-0.00836	0.00201
1.37800	0.00188	0.00065	0.00044	0.00004	-3.87860	-89.82000	-0.02425	-0.01105	-0.02764	-0.01098	-0.00836	0.00201
1.38000	0.00188	0.00065	0.00044	0.00004	-3.87860	-89.82000	-0.02425	-0.01105	-0.02764	-0.01098	-0.00836	0.00201
1.38200	0.00188	0.00065	0.00044	0.00004	-3.87860	-89.91000	-0.02425	-0.01105	-0.02764	-0.01098	-0.00836	0.00201
1.38400	0.00052	0.00227	0.00048	-0.00012	-3.96880	-89.91000	0.00407	-0.00978	-0.02205	-0.01505	-0.00703	-0.00049
1.38600	0.00052	0.00227	0.00048	-0.00012	-3.96880	-89.82000	0.00407	-0.00978	-0.02205	-0.01505	-0.00703	-0.00049
1.38800	0.00052	0.00227	0.00048	-0.00012	-3.96880	-89.82000	0.00407	-0.00978	-0.02205	-0.01505	-0.00703	-0.00049
1.39000	0.00052	0.00227	0.00048	-0.00012	-3.78840	-89.82000	0.00407	-0.00978	-0.02205	-0.01505	-0.00703	-0.00049
1.39200	0.00056	0.00049	0.00037	-0.00005	-3.78840	-89.82000	-0.01256	-0.01580	-0.01626	-0.01650	-0.00935	-0.00019
1.39400	0.00056	0.00049	0.00037	-0.00005	-3.69820	-89.73000	-0.01256	-0.01580	-0.01626	-0.01650	-0.00935	-0.00019
1.39600	0.00056	0.00049	0.00037	-0.00005	-3.69820	-89.73000	-0.01256	-0.01580	-0.01626	-0.01650	-0.00935	-0.00019
1.39800	0.00056	0.00049	0.00037	-0.00005	-3.60800	-89.64000	-0.01256	-0.01580	-0.01626	-0.01650	-0.00935	-0.00019
1.40000	0.00049	0.00195	0.00020	-0.00012	-3.69820	-89.73000	-0.00521	0.00707	-0.03066	-0.01200	-0.00774	0.00015
1.40200	0.00049	0.00195	0.00020	-0.00012	-3.78840	-89.73000	-0.00521	0.00707	-0.03066	-0.01200	-0.00774	0.00015
1.40400	0.00049	0.00195	0.00020	-0.00012	-3.78840	-89.73000	-0.00521	0.00707	-0.03066	-0.01200	-0.00774	0.00015
1.40600	0.00049	0.00195	0.00020	-0.00012	-3.78840	-89.73000	-0.00521	0.00707	-0.03066	-0.01200	-0.00774	0.00015
1.40800	0.00128	0.00066	0.00033	0.00015	-3.78840	-89.82000	-0.00521	0.00707	-0.03066	-0.01262	-0.01150	0.00244
1.41000	0.00054	0.00223	0.00059	0.00053	-3.69820	-89.73000	0.00842	0.00201	-0.02665	-0.01262	-0.01150	0.00244
1.41200	0.00054	0.00223	0.00059	0.00053	-3.87860	-89.64000	0.00842	0.00201	-0.02665	-0.01262	-0.01150	0.00244
1.41400	0.00054	0.00223	0.00059	0.00053	-3.87860	-89.82000	0.00842	0.00201	-0.02665	-0.01262	-0.01150	0.00244
1.41600	0.00054	0.00223	0.00059	0.00053	-3.87860	-89.82000	0.00842	0.00201	-0.02665	-0.01262	-0.01150	0.00244
1.41800	0.00016	0.00132	0.00026	0.00030	-3.78840	-89.82000	0.00225	0.00509	-0.02684	-0.01104	-0.01120	0.00049
1.42000	-0.00004	0.00052	0.00065	-0.00020	-3.78840	-89.82000	0.00225	0.00509	-0.02684	-0.01104	-0.01120	0.00049
1.42200	-0.00004	0.00052	0.00065	-0.00020	-3.69820	-89.73000	0.00225	0.00509	-0.02684	-0.01104	-0.01120	0.00049
1.42400	-0.00004	0.00052	0.00065	-0.00020	-3.69820	-89.73000	0.00225	0.00509	-0.02684	-0.01104	-0.01120	0.00049
1.42600	-0.00004	0.00052	0.00065	-0.00020	-3.69820	-89.73000	0.00225	0.00509	-0.02684	-0.01104	-0.01120	0.00049
1.42800	0.00026	0.00139	0.00046	-0.00010	-3.78840	-89.82000	0.00225	0.00509	-0.02684	-0.01104	-0.01120	0.00049
1.43000	0.00133	0.00073	0.00014	0.00000	-3.78840	-89.82000	0.01682	0.00580	-0.03671	-0.01478	-0.01292	0.00284
1.43200	0.00133	0.00073	0.00014	0.00000	-3.78840	-89.91000	0.01682	0.00580	-0.03671	-0.01478	-0.01292	0.00284
1.43400	0.00133	0.00073	0.00014	0.00000	-3.78840	-89.91000	0.01682	0.00580	-0.03671	-0.01478	-0.01292	0.00284
1.43600	0.00133	0.00073	0.00014	0.00000	-3.69820	-89.82000	0.01682	0.00580	-0.03671	-0.01478	-0.01292	0.00284
1.43800	0.00180	0.00005	0.00054	-0.00019	-3.69820	-89.82000	0.01682	0.00580	-0.03671	-0.01478	-0.01292	0.00284
1.44000	0.00140	0.00106	0.00054	0.00014	-3.69820	-89.82000	0.01148	0.00386	-0.02822	-0.01240	-0.01484	0.00025
1.44200	0.00140	0.00106	0.00054	0.00014	-3.78840	-89.73000	0.01148	0.00386	-0.02822	-0.01240	-0.01484	0.00025
1.44400	0.00140	0.00106	0.00054	0.00014	-3.78840	-89.73000	0.01148	0.00386	-0.02822	-0.01240	-0.01484	0.00025
1.44600	0.00140	0.00106	0.00054	0.00014	-3.78840	-89.64000	0.01148	0.00386	-0.02822	-0.01240	-0.01484	0.00025
1.44800	0.00035	0.00169	0.00025	-0.00010	-3.78840	-89.73000	0.01898	0.00052	-0.04133	-0.01314	-0.01471	0.00019
1.45000	0.00035	0.00169	0.00025	-0.00010	-3.87860	-89.73000	0.01898	0.00052	-0.04133	-0.01314	-0.01471	0.00019
1.45200	0.00035	0.00169	0.00025	-0.00010	-3.87860	-89.73000	0.01898	0.00052	-0.04133	-0.01314	-0.01471	0.00019
1.45400	0.00035	0.00169	0.00025	-0.00010	-4.05900	-89.73000	0.01898	0.00052	-0.04133	-0.01314	-0.01471	0.00019
1.45600	0.00026	0.00052	0.00047	-0.00000	-3.87860	-89.73000	-0.00083	-0.01188	-0.04130	-0.01354	-0.01437	-0.00074
1.45800	0.00026	0.00052	0.00047	-0.00000	-3.96880	-89.73000	-0.00083	-0.01188	-0.04130	-0.01354	-0.01437	-0.00074
1.46000	0.00026	0.00052	0.00047	-0.00000	-3.87860	-89.64000	-0.00083	-0.01188	-0.04130	-0.01354	-0.01437	-0.00074
1.46200	0.00026	0.00052	0.00047	-0.00000	-3.87860	-89.55000	-0.00083	-0.01188	-0.04130	-0.01354	-0.01437	-0.00074
1.46400	0.00137	0.00162	0.00039	-0.00032	-3.96880	-89.64000	0.01407	-0.00731	-0.03199	-0.01413	-0.00999	-0.00062
1.46600	0.00137	0.00162	0.00039	-0.00032	-3.87860	-89.64000	0.01407	-0.00731	-0.03199	-0.01413	-0.00999	-0.00062
1.46800	0.00137	0.00162	0.00039	-0.00032	-3.87860	-89.73000	0.01407	-0.00731	-0.03199	-0.01413	-0.00999	-0.00062
1.47000	0.00137	0.00162	0.00039	-0.00032	-3.87860	-89.64000	0.01407	-0.00731	-0.03199	-0.01413	-0.00999	-0.00062
1.47200	0.00118	0.00057	0.00055	-0.00020	-3.87860	-89.64000	-0.00670	-0.02509	-0.03300	-0.01422	-0.01012	-0.00278
1.47400	0.00118	0.00057	0.00055	-0.00020	-3.87860	-89.73000	-0.00670	-0.02509	-0.03300	-0.01422	-0.01012	-0.00278
1.47600	0.00118	0.00057	0.00055	-0.00020	-3.87860	-89.73000	-0.00670	-0.02509	-0.03300	-0.01422	-0.01012	-0.00278
1.47800	0.00118	0.00057	0.00055	-0.00020	-3.87860	-89.82000	-0.00670	-0.02509	-0.03300	-0.01422	-0.01012	-0.00278
1.48000	0.00056	0.00129	0.00027	0.00000	-3.87860	-89.73000	-0.01453	-0.00818	-0.02088	-0.01493	-0.00605	-0.00361
1.48200	0.00056	0.00129	0.00027	0.00000	-3.87860	-89.73000	-0.01453	-0.00818	-0.02088	-0.01493	-0.00605	-0.00361
1.48400	0.00056	0.00129	0.00027	0.00000	-3.96880	0.00000	-0.01453	-0.00818	-0.02088	-0.01493	-0.00605	-0.00361
1.48600	0.00056	0.00129	0.00027	0.00000	-3.96880	-89.82000	-0.01453	-0.00818	-0.02088	-0.01493	-0.00605	-0.00361
1.48800	0.00035	0.00072	0.00054	-0.00008	-3.96880	-89.82000	-0.00614	-0.00778	-0.02017	-0.01610	-0.00654	-0.00089
1.49000	0.00035	0.00072	0.00054	-0.00008	-3.96880	-90.00000	-0.00614	-0.00778	-0.02017	-0.01610	-0.00654	-0.00089
1.49200	0.00035	0.00072	0.00054	-0.00008	-3.96880	-90.00000	-0.00614	-0.00778	-0.02017	-0.01610	-0.00654	-0.00089
1.49400	0.00035	0.00072	0.00054	-0.00008	-3.96880	-89.82000	-0.00614	-0.00778	-0.02017	-0.01610	-0.00654	-0.00089
1.49600	0.00166	0.00127	0.00037	0.00013	-4.05900	-89.73000	-0.02456	-0.01460	-0.01061	-0.01795	-0.01039	-0.00586
1.49800	0.00166	0.00127	0.00037	0.00013	-3.96880	-89.73000	-0.02456	-0.01460	-0.01061	-0.01795	-0.01039	-0.00586
1.50000	0.00166	0.00127	0.00037	0.00013	-3.87860	-89.82000	-0.02456	-0.01460	-0.01061	-0.01795	-0.01039	-0.00586
1.50200	0.00166	0.00127	0.00037	0.00013	-4.05900	-89.82000	-0.02456	-0.01460	-0.01061	-0.01795	-0.01039	-0.00586
1.50400	0.00085	0.00105	0.00063	-0.00001	-4.05900	-89.82000	-0.00497	0.01006	-0.02714	-0.01490	-0.00651	0.00056
1.50600	0.00085	0.00105	0.00063	-0.00001	-4.05900	-89.73000	-0.00497	0.01006	-0.02714	-0.01490	-0.00651	0.00056
1.50800	0.00085	0.00105	0.00063	-0.00001	-4.05900	-89.73000	-0.00497	0.01006	-0.02714	-0.01490	-0.00651	0.00056
1.51000	0.00085	0.00105	0.00063	-0.00001	-4.05900	-89.64000	-0.00497	0.01006	-0.02714	-0.01490	-0.00651	0.00056
1.51200	0.00028	0.00122	0.00061	-0.00019	-4.05900	-89.73000	-0.01216	-0.00120	-0.01915	-0.01737	-0.00993	0.00157
1.51400	0.00028	0.00122	0.00061	-0.00019	-3.96880	-89.73000	-0.01216	-0.00120	-0.01915	-0.01737	-0.00993	0.00157
1.51600	0.00028	0.00122	0.00061	-0.00019	-3.96880	-89.73000	-0.01216	-0.00120	-0.01915	-0.01737	-0.00993	0.00157
1.51800	0.00028	0.00122	0.00061	-0.00019	-3.96880	-89.82000	-0.01216	-0.00120	-0.01915	-0.01737	-0.00993	0.00157
1.52000	0.00034	0.00087	0.00045	0.00008	-3.96880	-89.82000	-0.01216	-0.00120	-0.01915	-0.01737	-0.00993	0.00157
1.52200	0.00009	0.00211	0.00061	0.00018	-3.96880	-89.73000	-0.00441	-0.00636	-0.01999	-0.01536	-0.00851	0.00151
1.52400	0.00009	0.00211	0.00061	0.00018	-3.96880	-89.73000	-0.00441	-0.00636	-0.01999	-0.01536	-0.00851	0.00151
1.52600	0.00009	0.00211	0.00061	0.00018	-3.87860	-89.73000	-0.00441	-0.00636	-0.01999	-0.01536	-0.00851	0.00151
1.52800	0.00009	0.00211	0.00061	0.00018	-3.87860	-89.73000	-0.00441	-0.00636	-0.01999	-0.01536	-0.00851	0.00151
1.53000	0.00188	0.00090	0.00044	-0.00000	0.00000	0.00000	-0.01222	-0.02395	-0.03004	-0.01940	-0.00956	0.00225
1.53200	0.00188	0.00090	0.00044	-0.00000	-3.87860	-89.73000	-0.01222	-0.02395	-0.03004	-0.01940	-0.00956	0.00225
1.53400	0.00188	0.00090	0.00044	-0.00000	-3.87860	-89.82000	-0.01222	-0.02395	-0.03004	-0.01940	-0.00956	0.00225
1.53600	0.00188	0.00090	0.00044	-0.00000	-3.87860	-89.73000	-0.01222	-0.02395	-0.03004	-0.01940	-0.00956	0.00225
1.53800	0.00052	0.00172	0.00059	0.00012	-3.96880	-89.73000	-0.02950	-0.02772	-0.03516	-0.01799	-0.00694	-0.00031
1.54000	0.00052	0.00172	0.00059	0.00012	-3.96880	-89.73000	-0.02950	-0.02772	-0.03516	-0.01799	-0.00694	-0.00031
1.54200	0.00052	0.00172	0.00059	0.00012	-3.87860	-89.73000	-0.02950	-0.02772	-0.03516	-0.01799	-0.00694	-0.00031
1.54400	0.00052	0.00172	0.00059	0.00012	-3.87860	-89.73000	-0.02950	-0.02772	-0.03516	-0.01799	-0.00694	-0.00031
1.54600	0.00038	0.00056	0.00051	-0.00004	-3.96880	-89.73000	-0.00602	-0.01852	-0.03973	-0.01910	-0.00410	-0.00086
1.54800	0.00038	0.00056	0.00051	-0.00004	-3.87860	-89.82000	-0.00602	-0.01852	-0.03973	-0.01910	-0.00410	-0.00086
1.55000	0.00038	0.00056	0.00051	-0.00004	-3.87860	-89.82000	-0.00602	-0.01852	-0.03973	-0.01910	-0.00410	-0.00086
1.55200	0.00038	0.00056	0.00051	-0.00004	-3.87860	-89.91000	-0.00602	-0.01852	-0.03973	-0.01910	-0.00410	-0.00086
1.55400	0.00038	0.00182	-0.00005	0.00019	-3.96880	-89.82000	-0.02475	-0.02309	-0.03396	-0.01857	-0.00910	-0.00015
1.55600	0.00038	0.00182	-0.00005	0.00019	-3.96880	-89.73000	-0.02475	-0.02309	-0.03396	-0.01857	-0.00910	-0.00015
1.55800	0.00038	0.00182	-0.00005	0.00019	-4.05900	-89.64000	-0.02475	-0.02309	-0.03396	-0.01857	-0.00910	-0.00015
1.56000	0.00038	0.00182	-0.00005	0.00019	-3.96880	-89.64000	-0.02475	-0.02309	-0.03396	-0.01857	-0.00910	-0.00015
1.56200	0.00239	0.00076	0.00038	-0.00013	-4.05900	-89.82000	-0.01154	-0.01071	-0.04025	-0.02027	-0.00965	-0.00197
1.56400	0.00239	0.00076	0.00038	-0.00013	-3.96880	-89.64000	-0.01154	-0.01071	-0.04025	-0.02027	-0.00965	-0.00197
1.56600	0.00239	0.00076	0.00038	-0.00013	0.00000	0.00000	-0.01154	-0.01071	-0.04025	-0.02027	-0.00965	-0.00197
1.56800	0.00239	0.00076	0.00038	-0.00013	-3.87860	-89.64000	-0.01154	-0.01071	-0.04025	-0.02027	-0.00965	-0.00197
1.57000	0.00054	0.00166	0.00075	-0.00017	-3.87860	-89.73000	0.00000	-0.01892	-0.04729	-0.02067	-0.01400	-0.00160
1.57200	0.00054	0.00166	0.00075	-0.00017	-3.96880	-89.73000	0.00000	-0.01892	-0.04729	-0.02067	-0.01400	-0.00160
1.57400	0.00054	0.00166	0.00075	-0.00017	-3.87860	-89.73000	0.00000	-0.01892	-0.04729	-0.02067	-0.01400	-0.00160
1.57600	0.00054	0.00166	0.00075	-0.00017	-3.87860	-89.73000	0.00000	-0.01892	-0.04729	-0.02067	-0.01400	-0.00160
1.57800	0.00030	0.00041	0.00050	-0.00027	-3.96880	-89.73000	0.00028	-0.02667	-0.03964	-0.02101	-0.01400	-0.00083
1.58000	0.00030	0.00041	0.00050	-0.00027	-3.87860	-89.73000	0.00028	-0.02667	-0.03964	-0.02101	-0.01400	-0.00083
1.58200	0.00030	0.00041	0.00050	-0.00027	-3.87860	-89.82000	0.00028	-0.02667	-0.03964	-0.02101	-0.01400	-0.00083
1.58400	0.00030	0.00041	0.00050	-0.00027	-3.96880	-89.82000	0.00028	-0.02667	-0.03964	-0.02101	-0.01400	-0.00083
1.58600	0.00038	0.00160	0.00027	-0.00006	-3.96880	-89.73000	0.01657	-0.01843	-0.05478	-0.02428	-0.01369	-0.00262
1.58800	0.00038	0.00160	0.00027	-0.00006	-3.87860	-89.73000	0.01657	-0.01843	-0.05478	-0.02428	-0.01369	-0.00262
1.59000	0.00038	0.00160	0.00027	-0.00006	-3.87860	-89.73000	0.01657	-0.01843	-0.05478	-0.02428	-0.01369	-0.00262
1.59200	0.00038	0.00160	0.00027	-0.00006	-3.96880	-89.73000	0.01657	-0.01843	-0.05478	-0.02428	-0.01369	-0.00262
1.59400	0.00185	0.00041	0.00037	-0.00006	-3.87860	-89.73000	0.00025	-0.03025	-0.04093	-0.02360	-0.01838	0.00173
1.59600	0.00185	0.00041	0.00037	-0.00006	-3.87860	-89.73000	0.00025	-0.03025	-0.04093	-0.02360	-0.01838	0.00173
1.59800	0.00185	0.00041	0.00037	-0.00006	-3.96880	-89.73000	0.00025	-0.03025	-0.04093	-0.02360	-0.01838	0.00173
1.60000	0.00185	0.00041	0.00037	-0.00006	-3.87860	-89.73000	0.00025	-0.03025	-0.04093	-0.02360	-0.01838	0.00173
1.60200	0.00077	0.00184	0.00053	0.00010	-3.87860	-89.73000	0.00818	-0.02528	-0.03822	-0.02181	-0.01246	0.00102
1.60400	0.00077	0.00184	0.00053	0.00010	-3.87860	-89.91000	0.00818	-0.02528	-0.03822	-0.02181	-0.01246	0.00102
1.60600	0.00077	0.00184	0.00053	0.00010	-3.87860	-89.82000	0.00818	-0.02528	-0.03822	-0.02181	-0.01246	0.00102
1.60800	0.00077	0.00184	0.00053	0.00010	-3.96880	-89.73000	0.00818	-0.02528	-0.03822	-0.02181	-0.01246	0.00102
1.61000	0.00024	0.00059	0.00045	-0.00017	-3.96880	-89.64000	-0.00935	-0.02349	-0.02958	-0.02301	-0.00882	0.00006
1.61200	0.00024	0.00059	0.00045	-0.00017	-3.96880	-89.64000	-0.00935	-0.02349	-0.02958	-0.02301	-0.00882	0.00006
1.61400	0.00024	0.00059	0.00045	-0.00017	-4.05900	-89.64000	-0.00935	-0.02349	-0.02958	-0.02301	-0.00882	0.00006
1.61600	0.00024	0.00059	0.00045	-0.00017	-3.96880	-89.82000	-0.00935	-0.02349	-0.02958	-0.02301	-0.00882	0.00006
1.61800	0.00066	0.00222	0.00038	-0.00005	-4.05900	-89.82000	-0.02839	-0.02651	-0.03109	-0.02314	-0.00558	0.00142
1.62000	0.00066	0.00222	0.00038	-0.00005	-3.87860	-89.73000	-0.02839	-0.02651	-0.03109	-0.02314	-0.00558	0.00142
1.62200	0.00066	0.00222	0.00038	-0.00005	-3.87860	-89.73000	-0.02839	-0.02651	-0.03109	-0.02314	-0.00558	0.00142
1.62400	0.00066	0.00222	0.00038	-0.00005	-3.96880	-89.82000	-0.02839	-0.02651	-0.03109	-0.02314	-0.00558	0.00142
1.62600	0.00171	0.00079	0.00042	-0.00007	-3.87860	-89.91000	-0.00842	-0.03077	-0.02745	-0.02212	-0.00475	0.00219
1.62800	0.00171	0.00079	0.00042	-0.00007	-3.78840	-89.82000	-0.00842	-0.03077	-0.02745	-0.02212	-0.00475	0.00219
1.63000	0.00171	0.00079	0.00042	-0.00007	-3.69820	-89.82000	-0.00842	-0.03077	-0.02745	-0.02212	-0.00475	0.00219
1.63200	0.00171	0.00079	0.00042	-0.00007	0.00000	0.00000	-0.00842	-0.03077	-0.02745	-0.02212	-0.00475	0.00219
1.63400	0.00034	0.00188	0.00042	0.00045	-3.78840	-89.82000	-0.02737	-0.03781	-0.02236	-0.02292	-0.00851	0.00096
1.63600	0.00034	0.00188	0.00042	0.00045	-3.87860	-89.82000	-0.02737	-0.03781	-0.02236	-0.02292	-0.00851	0.00096
1.63800	0.00034	0.00188	0.00042	0.00045	-3.78840	-89.73000	-0.02737	-0.03781	-0.02236	-0.02292	-0.00851	0.00096
1.64000	0.00034	0.00188	0.00042	0.00045	-3.78840	-89.73000	-0.02737	-0.03781	-0.02236	-0.02292	-0.00851	0.00096
1.64200	0.00007	0.00076	0.00062	0.00029	-3.69820	-89.82000	-0.01676	-0.02537	-0.03374	-0.02261	-0.00922	0.00040
1.64400	0.00007	0.00076	0.00062	0.00029	-3.60800	-89.82000	-0.01676	-0.02537	-0.03374	-0.02261	-0.00922	0.00040
1.64600	0.00007	0.00076	0.00062	0.00029	-3.60800	-89.82000	-0.01676	-0.02537	-0.03374	-0.02261	-0.00922	0.00040
1.64800	0.00007	0.00076	0.00062	0.00029	-3.78840	-89.82000	-0.01676	-0.02537	-0.03374	-0.02261	-0.00922	0.00040
1.65000	0.00041	0.00189	0.00085	0.00009	-3.87860	-89.82000	-0.00549	-0.02787	-0.02184	-0.02536	-0.01002	0.00052
1.65200	0.00041	0.00189	0.00085	0.00009	0.00000	0.00000	-0.00549	-0.02787	-0.02184	-0.02536	-0.01002	0.00052
1.65400	0.00041	0.00189	0.00085	0.00009	0.00000	0.00000	-0.00549	-0.02787	-0.02184	-0.02536	-0.01002	0.00052
1.65600	0.00041	0.00189	0.00085	0.00009	-3.87860	-89.82000	-0.00549	-0.02787	-0.02184	-0.02536	-0.01002	0.00052
1.65800	0.00113	0.00056	0.00034	0.00004	-3.96880	-89.91000	-0.01534	-0.03454	-0.02279	-0.02175	-0.01101	-0.00046
1.66000	0.00113	0.00056	0.00034	0.00004	-3.96880	-89.91000	-0.01534	-0.03454	-0.02279	-0.02175	-0.01101	-0.00046
1.66200	0.00113	0.00056	0.00034	0.00004	-3.96880	-89.91000	-0.01534	-0.03454	-0.02279	-0.02175	-0.01101	-0.00046
1.66400	0.00113	0.00056	0.00034	0.00004	-3.96880	-89.82000	-0.01534	-0.03454	-0.02279	-0.02175	-0.01101	-0.00046
1.66600	0.00030	0.00191	0.00033	0.00016	-3.78840	-89.82000	-0.00765	-0.02904	-0.02270	-0.02517	-0.01187	0.00244
1.66800	0.00030	0.00191	0.00033	0.00016	0.00000	0.00000	-0.00765	-0.02904	-0.02270	-0.02517	-0.01187	0.00244
1.67000	0.00030	0.00191	0.00033	0.00016	-3.78840	-89.73000	-0.00765	-0.02904	-0.02270	-0.02517	-0.01187	0.00244
1.67200	0.00030	0.00191	0.00033	0.00016	-3.87860	-89.82000	-0.00765	-0.02904	-0.02270	-0.02517	-0.01187	0.00244
1.67400	0.00060	0.00034	0.00015	0.00009	0.00000	0.00000	-0.02481	-0.04361	-0.02039	-0.02527	-0.00953	-0.00089
1.67600	0.00060	0.00034	0.00015	0.00009	-3.87860	-89.73000	-0.02481	-0.04361	-0.02039	-0.02527	-0.00953	-0.00089
1.67800	0.00060	0.00034	0.00015	0.00009	-3.87860	-89.82000	-0.02481	-0.04361	-0.02039	-0.02527	-0.00953	-0.00089
1.68000	0.00060	0.00034	0.00015	0.00009	-3.87860	-89.82000	-0.02481	-0.04361	-0.02039	-0.02527	-0.00953	-0.00089
1.68200	0.00106	0.00145	0.00023	-0.00018	-3.87860	-89.82000	-0.01333	-0.02849	-0.01548	-0.02520	-0.00944	0.00003
1.68400	0.00106	0.00145	0.00023	-0.00018	-3.78840	-89.73000	-0.01333	-0.02849	-0.01548	-0.02520	-0.00944	0.00003
1.68600	0.00106	0.00145	0.00023	-0.00018	-3.96880	-89.82000	-0.01333	-0.02849	-0.01548	-0.02520	-0.00944	0.00003
1.68800	0.00106	0.00145	0.00023	-0.00018	-3.96880	-89.82000	-0.01333	-0.02849	-0.01548	-0.02520	-0.00944	0.00003
1.69000	0.00128	0.00076	0.00026	-0.00006	-4.05900	-89.73000	-0.01333	-0.03148	-0.02486	-0.02480	-0.00765	-0.00059
1.69200	0.00128	0.00076	0.00026	-0.00006	-3.87860	-89.73000	-0.01333	-0.03148	-0.02486	-0.02480	-0.00765	-0.00059
1.69400	0.00128	0.00076	0.00026	-0.00006	0.00000	0.00000	-0.01333	-0.03148	-0.02486	-0.02480	-0.00765	-0.00059
1.69600	0.00128	0.00076	0.00026	-0.00006	0.00000	0.00000	-0.01333	-0.03148	-0.02486	-0.02480	-0.00765	-0.00059
1.69800	0.00009	0.00205	0.00046	-0.00015	-3.87860	-89.82000	-0.03240	-0.02392	-0.03510	-0.02443	-0.00814	0.00006
1.70000	0.00009	0.00205	0.00046	-0.00015	-3.78840	-89.82000	-0.03240	-0.02392	-0.03510	-0.02443	-0.00814	0.00006
1.70200	0.00009	0.00205	0.00046	-0.00015	-3.78840	-89.73000	-0.03240	-0.02392	-0.03510	-0.02443	-0.00814	0.00006
1.70400	0.00009	0.00205	0.00046	-0.00015	-3.78840	-89.73000	-0.03240	-0.02392	-0.03510	-0.02443	-0.00814	0.00006
1.70600	0.00012	0.00054	0.00043	-0.00016	-3.87860	-89.73000	-0.00870	-0.01265	-0.04559	-0.02286	-0.00765	0.00148
1.70800	0.00012	0.00054	0.00043	-0.00016	-3.78840	-89.82000	-0.00870	-0.01265	-0.04559	-0.02286	-0.00765	0.00148
1.71000	0.00012	0.00054	0.00043	-0.00016	-3.87860	-89.82000	-0.00870	-0.01265	-0.04559	-0.02286	-0.00765	0.00148
1.71200	0.00012	0.00054	0.00043	-0.00016	-3.87860	-89.73000	-0.00870	-0.01265	-0.04559	-0.02286	-0.00765	0.00148
1.71400	0.00116	0.00141	0.00015	-0.00027	-3.87860	-89.73000	-0.01095	-0.02941	-0.04220	-0.02166	-0.01280	0.00191
1.71600	0.00191	0.00049	0.00021	-0.00023	-3.96880	-89.82000	-0.01095	-0.02941	-0.04220	-0.02166	-0.01280	0.00191
1.71800	0.00191	0.00049	0.00021	-0.00023	0.00000	0.00000	-0.01095	-0.02941	-0.04220	-0.02166	-0.01280	0.00191
1.72000	0.00191	0.00049	0.00021	-0.00023	-3.96880	-89.64000	-0.01095	-0.02941	-0.04220	-0.02166	-0.01280	0.00191
1.72200	0.00191	0.00049	0.00021	-0.00023	-3.96880	-89.55000	-0.01095	-0.02941	-0.04220	-0.02166	-0.01280	0.00191
1.72400	0.00074	0.00137	0.00040	-0.00009	-3.96880	-89.55000	0.00923	-0.01327	-0.05688	-0.02258	-0.01187	0.00117
1.72600	0.00074	0.00137	0.00040	-0.00009	-3.87860	-89.64000	0.00923	-0.01327	-0.05688	-0.02258	-0.01187	0.00117
1.72800	0.00074	0.00137	0.00040	-0.00009	-3.78840	-89.73000	0.00923	-0.01327	-0.05688	-0.02258	-0.01187	0.00117
1.73000	0.00074	0.00137	0.00040	-0.00009	-3.78840	-89.73000	0.00923	-0.01327	-0.05688	-0.02258	-0.01187	0.00117
1.73200	-0.00015	0.00093	0.00030	-0.00011	-3.87860	-89.73000	0.01441	-0.02944	-0.05093	-0.02190	-0.01724	-0.00136
1.73400	-0.00015	0.00093	0.00030	-0.00011	-3.87860	-89.64000	0.01441	-0.02944	-0.05093	-0.02190	-0.01724	-0.00136
1.73600	-0.00015	0.00093	0.00030	-0.00011	-3.87860	-89.64000	0.01441	-0.02944	-0.05093	-0.02190	-0.01724	-0.00136
1.73800	-0.00015	0.00093	0.00030	-0.00011	-3.78840	-89.64000	0.01441	-0.02944	-0.05093	-0.02190	-0.01724	-0.00136
1.74000	0.00038	0.00187	0.00057	-0.00009	0.00000	0.00000	0.01676	-0.03083	-0.04488	-0.02187	-0.01629	-0.00077
1.74200	0.00038	0.00187	0.00057	-0.00009	-3.96880	-89.82000	0.01676	-0.03083	-0.04488	-0.02187	-0.01629	-0.00077
1.74400	0.00038	0.00187	0.00057	-0.00009	-3.96880	-89.82000	0.01676	-0.03083	-0.04488	-0.02187	-0.01629	-0.00077
1.74600	0.00038	0.00187	0.00057	-0.00009	-3.78840	-89.73000	0.01676	-0.03083	-0.04488	-0.02187	-0.01629	-0.00077
1.74800	0.00191	0.00099	0.00023	-0.00013	-3.87860	-89.73000	0.02429	-0.02494	-0.04778	-0.02122	-0.01767	0.00022
1.75000	0.00191	0.00099	0.00023	-0.00013	-3.78840	-89.73000	0.02429	-0.02494	-0.04778	-0.02122	-0.01767	0.00022
1.75200	0.00191	0.00099	0.00023	-0.00013	-3.78840	-89.73000	0.02429	-0.02494	-0.04778	-0.02122	-0.01767	0.00022
1.75400	0.00191	0.00099	0.00023	-0.00013	-3.87860	-89.64000	0.02429	-0.02494	-0.04778	-0.02122	-0.01767	0.00022
1.75600	0.00073	0.00151	0.00028	-0.00001	-3.87860	-89.64000	-0.00380	-0.03528	-0.05028	-0.02067	-0.01009	-0.00167
1.75800	0.00073	0.00151	0.00028	-0.00001	-3.96880	-89.73000	-0.00380	-0.03528	-0.05028	-0.02067	-0.01009	-0.00167
1.76000	0.00073	0.00151	0.00028	-0.00001	-3.96880	-89.82000	-0.00380	-0.03528	-0.05028	-0.02067	-0.01009	-0.00167
1.76200	0.00073	0.00151	0.00028	-0.00001	-3.96880	-89.82000	-0.00380	-0.03528	-0.05028	-0.02067	-0.01009	-0.00167
1.76400	0.00028	0.00054	0.00022	0.00004	-3.78840	-89.64000	0.00096	-0.01790	-0.03646	-0.01771	-0.00808	-0.00123
1.76600	0.00028	0.00054	0.00022	0.00004	-3.87860	-89.73000	0.00096	-0.01790	-0.03646	-0.01771	-0.00808	-0.00123
1.76800	0.00028	0.00054	0.00022	0.00004	-3.96880	-89.82000	0.00096	-0.01790	-0.03646	-0.01771	-0.00808	-0.00123
1.77000	0.00028	0.00054	0.00022	0.00004	-3.87860	-89.82000	0.00096	-0.01790	-0.03646	-0.01771	-0.00808	-0.00123
1.77200	0.00057	0.00171	0.00032	-0.00004	-3.96880	-89.82000	-0.01290	-0.01880	-0.04260	-0.01715	-0.00888	-0.00049
1.77400	0.00057	0.00171	0.00032	-0.00004	-3.96880	-89.73000	-0.01290	-0.01880	-0.04260	-0.01715	-0.00888	-0.00049
1.77600	0.00057	0.00171	0.00032	-0.00004	-3.96880	-89.64000	-0.01290	-0.01880	-0.04260	-0.01715	-0.00888	-0.00049
1.77800	0.00057	0.00171	0.00032	-0.00004	-3.87860	-89.64000	-0.01290	-0.01880	-0.04260	-0.01715	-0.00888	-0.00049
1.78000	0.00204	0.00067	0.00058	-0.00004	-3.87860	-89.73000	-0.01626	-0.01451	-0.03923	-0.01718	-0.01064	-0.00043
1.78200	0.00204	0.00067	0.00058	-0.00004	-3.87860	-89.73000	-0.01626	-0.01451	-0.03923	-0.01718	-0.01064	-0.00043
1.78400	0.00204	0.00067	0.00058	-0.00004	-3.87860	-89.82000	-0.01626	-0.01451	-0.03923	-0.01718	-0.01064	-0.00043
1.78600	0.00204	0.00067	0.00058	-0.00004	-3.96880	-89.82000	-0.01626	-0.01451	-0.03923	-0.01718	-0.01064	-0.00043
1.78800	0.00060	0.00188	0.00085	-0.00000	-3.96880	-89.82000	-0.00096	-0.00907	-0.02890	-0.01697	-0.00913	-0.00065
1.79000	0.00060	0.00188	0.00085	-0.00000	-3.87860	-89.82000	-0.00096	-0.00907	-0.02890	-0.01697	-0.00913	-0.00065
1.79200	0.00060	0.00188	0.00085	-0.00000	-3.87860	-89.91000	-0.00096	-0.00907	-0.02890	-0.01697	-0.00913	-0.00065
1.79400	0.00060	0.00188	0.00085	-0.00000	-3.96880	-89.82000	-0.00096	-0.00907	-0.02890	-0.01697	-0.00913	-0.00065
1.79600	0.00043	0.00078	0.00013	0.00018	-3.96880	-89.82000	-0.02138	-0.01164	-0.02212	-0.01456	-0.01144	0.00025
1.79800	0.00043	0.00078	0.00013	0.00018	-4.05900	-89.91000	-0.02138	-0.01164	-0.02212	-0.01456	-0.01144	0.00025
1.80000	0.00043	0.00078	0.00013	0.00018	-4.05900	-90.00000	-0.02138	-0.01164	-0.02212	-0.01456	-0.01144	0.00025
1.80200	0.00043	0.00078	0.00013	0.00018	-3.96880	-89.91000	-0.02138	-0.01164	-0.02212	-0.01456	-0.01144	0.00025
1.80400	-0.00002	0.00171	0.00068	-0.00019	-3.96880	-89.82000	-0.00876	0.00605	-0.03032	-0.01249	-0.00561	0.00222
1.80600	-0.00002	0.00171	0.00068	-0.00019	-3.96880	-89.82000	-0.00876	0.00605	-0.03032	-0.01249	-0.00561	0.00222
1.80800	-0.00002	0.00171	0.00068	-0.00019	-3.96880	-89.82000	-0.00876	0.00605	-0.03032	-0.01249	-0.00561	0.00222
1.81000	-0.00002	0.00171	0.00068	-0.00019	-3.96880	-89.82000	-0.00876	0.00605	-0.03032	-0.01249	-0.00561	0.00222
1.81200	0.00230	0.00065	0.00026	-0.00023	-3.96880	-89.73000	-0.01009	-0.00565	-0.01184	-0.01641	-0.00688	-0.00059
1.81400	0.00230	0.00065	0.00026	-0.00023	-3.96880	-89.73000	-0.01009	-0.00565	-0.01184	-0.01641	-0.00688	-0.00059
1.81600	0.00230	0.00065	0.00026	-0.00023	-3.87860	-89.82000	-0.01009	-0.00565	-0.01184	-0.01641	-0.00688	-0.00059
1.81800	0.00230	0.00065	0.00026	-0.00023	-3.87860	-89.82000	-0.01009	-0.00565	-0.01184	-0.01641	-0.00688	-0.00059
1.82000	0.00066	0.00160	0.00035	0.00034	-3.87860	-89.73000	-0.01240	-0.00670	-0.00102	-0.01453	-0.00691	0.00207
1.82200	0.00066	0.00160	0.00035	0.00034	-3.96880	-89.73000	-0.01240	-0.00670	-0.00102	-0.01453	-0.00691	0.00207
1.82400	0.00066	0.00160	0.00035	0.00034	-3.87860	-89.73000	-0.01240	-0.00670	-0.00102	-0.01453	-0.00691	0.00207
1.82600	0.00066	0.00160	0.00035	0.00034	-3.87860	-89.73000	-0.01240	-0.00670	-0.00102	-0.01453	-0.00691	0.00207
1.82800	0.00035	0.00080	0.00041	0.00049	0.00000	0.00000	0.00225	0.00929	-0.01727	-0.01675	-0.00623	0.00046
1.83000	0.00035	0.00080	0.00041	0.00049	-3.78840	-89.73000	0.00225	0.00929	-0.01727	-0.01675	-0.00623	0.00046
1.83200	0.00035	0.00080	0.00041	0.00049	-3.78840	-89.82000	0.00225	0.00929	-0.01727	-0.01675	-0.00623	0.00046
1.83400	0.00035	0.00080	0.00041	0.00049	-3.96880	-89.82000	0.00225	0.00929	-0.01727	-0.01675	-0.00623	0.00046
1.83600	0.00038	0.00174	-0.00001	0.00012	-3.87860	-89.82000	-0.01315	0.00728	-0.02650	-0.01404	-0.00672	-0.00272
1.83800	0.00038	0.00174	-0.00001	0.00012	-3.87860	-89.82000	-0.01315	0.00728	-0.02650	-0.01404	-0.00672	-0.00272
1.84000	0.00038	0.00174	-0.00001	0.00012	-3.87860	-89.91000	-0.01315	0.00728	-0.02650	-0.01404	-0.00672	-0.00272
1.84200	0.00038	0.00174	-0.00001	0.00012	-3.87860	-89.82000	-0.01315	0.00728	-0.02650	-0.01404	-0.00672	-0.00272
1.84400	0.00151	0.00039	0.00028	-0.00020	-3.87860	-89.73000	-0.00296	0.00944	-0.03418	-0.01148	-0.00867	0.00028
1.84600	0.00151	0.00039	0.00028	-0.00020	-3.78840	-89.82000	-0.00296	0.00944	-0.03418	-0.01148	-0.00867	0.00028
1.84800	0.00151	0.00039	0.00028	-0.00020	-3.87860	-89.91000	-0.00296	0.00944	-0.03418	-0.01148	-0.00867	0.00028
1.85000	0.00151	0.00039	0.00028	-0.00020	0.00000	0.00000	-0.00296	0.00944	-0.03418	-0.01148	-0.00867	0.00028
1.85200	0.00027	0.00163	0.00038	-0.00020	-3.78840	-89.73000	-0.00787	0.00043	-0.04260	-0.01447	-0.01012	-0.00059
1.85400	0.00027	0.00163	0.00038	-0.00020	-3.78840	-89.73000	-0.00787	0.00043	-0.04260	-0.01447	-0.01012	-0.00059
1.85600	0.00027	0.00163	0.00038	-0.00020	-3.87860	-89.73000	-0.00787	0.00043	-0.04260	-0.01447	-0.01012	-0.00059
1.85800	0.00027	0.00163	0.00038	-0.00020	-3.87860	-89.82000	-0.00787	0.00043	-0.04260	-0.01447	-0.01012	-0.00059
1.86000	0.00057	0.00067	0.00058	0.00003	-3.96880	-89.82000	-0.00611	-0.00738	-0.05361	-0.01246	-0.00885	-0.00034
1.86200	0.00057	0.00067	0.00058	0.00003	-3.96880	-89.82000	-0.00611	-0.00738	-0.05361	-0.01246	-0.00885	-0.00034
1.86400	0.00057	0.00067	0.00058	0.00003	-3.87860	-89.82000	-0.00611	-0.00738	-0.05361	-0.01246	-0.00885	-0.00034
1.86600	0.00057	0.00067	0.00058	0.00003	-3.87860	-89.73000	-0.00611	-0.00738	-0.05361	-0.01246	-0.00885	-0.00034
1.86800	0.00038	0.00237	0.00063	-0.00005	-3.96880	-89.73000	0.01685	-0.01256	-0.05213	-0.01354	-0.01175	-0.00157
1.87000	0.00038	0.00237	0.00063	-0.00005	-4.05900	-89.64000	0.01685	-0.01256	-0.05213	-0.01354	-0.01175	-0.00157
1.87200	0.00038	0.00237	0.00063	-0.00005	-3.96880	-89.73000	0.01685	-0.01256	-0.05213	-0.01354	-0.01175	-0.00157
1.87400	0.00038	0.00237	0.00063	-0.00005	-3.87860	-89.73000	0.01685	-0.01256	-0.05213	-0.01354	-0.01175	-0.00157
1.87600	0.00194	0.00052	0.00046	-0.00013	-3.87860	-89.82000	0.01796	-0.02769	-0.05018	-0.01802	-0.01243	-0.00154
1.87800	0.00194	0.00052	0.00046	-0.00013	-3.87860	-89.82000	0.01796	-0.02769	-0.05018	-0.01802	-0.01243	-0.00154
1.88000	0.00194	0.00052	0.00046	-0.00013	-3.96880	-89.82000	0.01796	-0.02769	-0.05018	-0.01802	-0.01243	-0.00154
1.88200	0.00194	0.00052	0.00046	-0.00013	-3.96880	-89.82000	0.01796	-0.02769	-0.05018	-0.01802	-0.01243	-0.00154
1.88400	0.00020	0.00204	0.00035	-0.00016	-3.87860	-89.73000	0.03576	-0.01201	-0.05349	-0.01607	-0.01986	-0.00120
1.88600	0.00020	0.00204	0.00035	-0.00016	-3.87860	-89.73000	0.03576	-0.01201	-0.05349	-0.01607	-0.01986	-0.00120
1.88800	0.00020	0.00204	0.00035	-0.00016	-3.87860	-89.64000	0.03576	-0.01201	-0.05349	-0.01607	-0.01986	-0.00120
1.89000	0.00020	0.00204	0.00035	-0.00016	-3.87860	-89.55000	0.03576	-0.01201	-0.05349	-0.01607	-0.01986	-0.00120
1.89200	0.00037	0.00051	0.00044	-0.00005	-3.96880	-89.64000	0.03623	-0.01960	-0.04087	-0.01777	-0.02236	-0.00034
1.89400	0.00067	0.00219	0.00034	0.00028	-4.05900	-89.55000	0.03623	-0.01960	-0.04087	-0.01777	-0.02236	-0.00034
1.89600	0.00067	0.00219	0.00034	0.00028	-4.05900	-89.55000	0.03623	-0.01960	-0.04087	-0.01777	-0.02236	-0.00034
1.89800	0.00067	0.00219	0.00034	0.00028	-3.96880	-89.64000	0.03623	-0.01960	-0.04087	-0.01777	-0.02236	-0.00034
1.90000	0.00067	0.00219	0.00034	0.00028	-3.96880	-89.73000	0.03623	-0.01960	-0.04087	-0.01777	-0.02236	-0.00034
1.90200	0.00107	0.00200	0.00028	0.00011	-3.87860	-89.73000	0.02058	-0.01333	-0.03630	-0.01641	-0.01607	-0.00056
1.90400	0.00107	0.00200	0.00028	0.00011	-3.87860	-89.82000	0.02058	-0.01333	-0.03630	-0.01641	-0.01607	-0.00056
1.90600	0.00107	0.00200	0.00028	0.00011	-3.87860	-89.82000	0.02058	-0.01333	-0.03630	-0.01641	-0.01607	-0.00056
1.90800	0.00107	0.00200	0.00028	0.00011	-3.87860	-89.82000	0.02058	-0.01333	-0.03630	-0.01641	-0.01607	-0.00056
1.91000	0.00077	0.00100	0.00032	-0.00001	-3.87860	-89.73000	0.02058	-0.01333	-0.03630	-0.01641	-0.01607	-0.00056
1.91200	0.00041	0.00230	0.00031	-0.00026	-3.96880	-89.82000	-0.00046	-0.01602	-0.04411	-0.01857	-0.00571	0.00062
1.91400	0.00041	0.00230	0.00031	-0.00026	-3.87860	-89.82000	-0.00046	-0.01602	-0.04411	-0.01857	-0.00571	0.00062
1.91600	0.00041	0.00230	0.00031	-0.00026	-3.78840	-89.82000	-0.00046	-0.01602	-0.04411	-0.01857	-0.00571	0.00062
1.91800	0.00041	0.00230	0.00031	-0.00026	-3.87860	-89.91000	-0.00046	-0.01602	-0.04411	-0.01857	-0.00571	0.00062
1.92000	0.00088	0.00069	0.00060	-0.00006	-3.87860	-89.82000	-0.03829	-0.01296	-0.03698	-0.01863	-0.00167	0.00290
1.92200	0.00069	0.00085	0.00035	-0.00005	-3.78840	-89.82000	-0.03829	-0.01296	-0.03698	-0.01863	-0.00167	0.00290
1.92400	0.00069	0.00085	0.00035	-0.00005	-3.78840	-89.82000	-0.03829	-0.01296	-0.03698	-0.01863	-0.00167	0.00290
1.92600	0.00069	0.00085	0.00035	-0.00005	-3.87860	-89.82000	-0.03829	-0.01296	-0.03698	-0.01863	-0.00167	0.00290
1.92800	0.00069	0.00085	0.00035	-0.00005	-3.96880	-89.73000	-0.03829	-0.01296	-0.03698	-0.01863	-0.00167	0.00290
1.93000	0.00046	0.00193	0.00016	-0.00021	-4.05900	-89.82000	-0.03829	-0.01296	-0.03698	-0.01863	-0.00167	0.00290
1.93200	0.00365	0.00116	0.00029	-0.00015	-4.05900	-89.73000	-0.02805	0.00343	-0.03023	-0.01780	-0.00028	0.00228
1.93400	0.00365	0.00116	0.00029	-0.00015	-3.87860	-89.73000	-0.02805	0.00343	-0.03023	-0.01780	-0.00028	0.00228
1.93600	0.00365	0.00116	0.00029	-0.00015	-3.96880	-89.73000	-0.02805	0.00343	-0.03023	-0.01780	-0.00028	0.00228
1.93800	0.00365	0.00116	0.00029	-0.00015	-3.87860	-89.73000	-0.02805	0.00343	-0.03023	-0.01780	-0.00028	0.00228
1.94000	0.00130	0.00039	0.00041	0.00004	-3.78840	-89.64000	-0.02805	0.00343	-0.03023	-0.01780	-0.00028	0.00228
1.94200	0.00130	0.00039	0.00041	0.00004	-3.96880	-89.73000	-0.02348	0.00886	-0.03183	-0.01802	-0.00749	0.00225
1.94400	0.00076	0.00305	0.00025	-0.00011	-3.96880	-89.73000	-0.02348	0.00886	-0.03183	-0.01802	-0.00749	0.00225
1.94600	0.00076	0.00305	0.00025	-0.00011	-3.87860	-89.82000	-0.02348	0.00886	-0.03183	-0.01802	-0.00749	0.00225
1.94800	0.00076	0.00305	0.00025	-0.00011	-3.87860	-89.82000	-0.02348	0.00886	-0.03183	-0.01802	-0.00749	0.00225
1.95000	0.00066	0.00062	0.00047	-0.00014	-3.78840	-89.82000	0.01188	0.01485	-0.02810	-0.01786	-0.00959	0.00068
1.95200	0.00066	0.00062	0.00047	-0.00014	-3.78840	-89.82000	0.01188	0.01485	-0.02810	-0.01786	-0.00959	0.00068
1.95400	0.00066	0.00062	0.00047	-0.00014	-3.78840	-89.82000	0.01188	0.01485	-0.02810	-0.01786	-0.00959	0.00068
1.95600	0.00066	0.00062	0.00047	-0.00014	-3.78840	-89.73000	0.01188	0.01485	-0.02810	-0.01786	-0.00959	0.00068
1.95800	-0.00035	0.00111	0.00054	-0.00005	-3.87860	-89.73000	0.00432	-0.02858	-0.02390	-0.02024	-0.01807	0.00133
1.96000	-0.00035	0.00111	0.00054	-0.00005	-3.78840	-89.73000	0.00432	-0.02858	-0.02390	-0.02024	-0.01807	0.00133
1.96200	-0.00035	0.00111	0.00054	-0.00005	-3.96880	-89.73000	0.00432	-0.02858	-0.02390	-0.02024	-0.01807	0.00133
1.96400	-0.00035	0.00111	0.00054	-0.00005	-3.96880	-89.82000	0.00432	-0.02858	-0.02390	-0.02024	-0.01807	0.00133
1.96600	0.00182	0.00065	0.00025	-0.00019	-3.96880	-89.82000	0.00432	-0.02858	-0.02390	-0.02024	-0.01807	0.00133
1.96800	0.00112	0.00072	0.00030	0.00036	-3.96880	-89.82000	-0.00506	-0.03904	-0.01894	-0.02104	-0.00907	-0.00077
1.97000	0.00112	0.00072	0.00030	0.00036	-3.96880	-89.82000	-0.00506	-0.03904	-0.01894	-0.02104	-0.00907	-0.00077
1.97200	0.00112	0.00072	0.00030	0.00036	-3.96880	-89.82000	-0.00506	-0.03904	-0.01894	-0.02104	-0.00907	-0.00077
1.97400	0.00112	0.00072	0.00030	0.00036	0.00000	0.00000	-0.00506	-0.03904	-0.01894	-0.02104	-0.00907	-0.00077
1.97600	0.00055	0.00156	0.00028	-0.00026	-3.87860	-89.82000	-0.04792	-0.04482	-0.01681	-0.02326	-0.00034	-0.00074
1.97800	0.00011	0.00093	0.00027	-0.00002	-3.96880	-89.91000	-0.04792	-0.04482	-0.01681	-0.02326	-0.00034	-0.00074
1.98000	0.00011	0.00093	0.00027	-0.00002	-3.87860	-89.91000	-0.04792	-0.04482	-0.01681	-0.02326	-0.00034	-0.00074
1.98200	0.00011	0.00093	0.00027	-0.00002	-3.78840	-89.91000	-0.04792	-0.04482	-0.01681	-0.02326	-0.00034	-0.00074
1.98400	0.00011	0.00093	0.00027	-0.00002	-3.96880	-89.82000	-0.04792	-0.04482	-0.01681	-0.02326	-0.00034	-0.00074
1.98600	0.00037	0.00056	0.00050	-0.00002	-3.96880	-89.82000	-0.03894	-0.02411	-0.03430	-0.02224	0.00290	0.00410
1.98800	0.00037	0.00056	0.00050	-0.00002	-4.05900	-89.73000	-0.03894	-0.02411	-0.03430	-0.02224	0.00290	0.00410
1.99000	0.00037	0.00056	0.00050	-0.00002	-4.05900	-89.73000	-0.03894	-0.02411	-0.03430	-0.02224	0.00290	0.00410
1.99200	0.00037	0.00056	0.00050	-0.00002	-3.87860	-89.64000	-0.03894	-0.02411	-0.03430	-0.02224	0.00290	0.00410
1.99400	0.00061	0.00208	0.00019	0.00019	-3.78840	-89.73000	-0.04357	-0.01688	-0.04756	-0.02366	-0.00438	0.00062
1.99600	0.00061	0.00208	0.00019	0.00019	-3.78840	-89.73000	-0.04357	-0.01688	-0.04756	-0.02366	-0.00438	0.00062
1.99800	0.00061	0.00208	0.00019	0.00019	-3.87860	-89.73000	-0.04357	-0.01688	-0.04756	-0.02366	-0.00438	0.00062
2.00000	0.00061	0.00208	0.00019	0.00019	-3.87860	-89.73000	-0.04357	-0.01688	-0.04756	-0.02366	-0.00438	0.00062
2.00200	0.00178	0.00076	0.00045	0.00006	-3.87860	-89.73000	-0.00065	0.01367	-0.06700	-0.02156	-0.01336	0.00089
2.00400	0.00178	0.00076	0.00045	0.00006	-3.87860	-89.64000	-0.00065	0.01367	-0.06700	-0.02156	-0.01336	0.00089
2.00600	0.00178	0.00076	0.00045	0.00006	-3.96880	-89.73000	-0.00065	0.01367	-0.06700	-0.02156	-0.01336	0.00089
2.00800	0.00178	0.00076	0.00045	0.00006	-3.96880	-89.73000	-0.00065	0.01367	-0.06700	-0.02156	-0.01336	0.00089
2.01000	0.00021	0.00151	0.00028	-0.00017	-3.87860	-89.73000	0.06051	-0.00361	-0.08856	-0.02267	-0.02628	0.00343
2.01200	0.00021	0.00151	0.00028	-0.00017	-3.78840	-89.73000	0.06051	-0.00361	-0.08856	-0.02267	-0.02628	0.00343
2.01400	0.00021	0.00151	0.00028	-0.00017	-3.78840	-89.73000	0.06051	-0.00361	-0.08856	-0.02267	-0.02628	0.00343
2.01600	0.00021	0.00151	0.00028	-0.00017	-3.78840	-89.73000	0.06051	-0.00361	-0.08856	-0.02267	-0.02628	0.00343
2.01800	0.00055	0.00062	0.00062	-0.00001	-3.78840	-89.64000	0.06659	-0.03028	-0.08985	-0.02348	-0.03513	0.00197
2.02000	0.00055	0.00062	0.00062	-0.00001	-3.87860	-89.73000	0.06659	-0.03028	-0.08985	-0.02348	-0.03513	0.00197
2.02200	0.00055	0.00062	0.00062	-0.00001	-3.96880	-89.82000	0.06659	-0.03028	-0.08985	-0.02348	-0.03513	0.00197
2.02400	0.00055	0.00062	0.00062	-0.00001	-3.96880	-89.73000	0.06659	-0.03028	-0.08985	-0.02348	-0.03513	0.00197
2.02600	0.00133	0.00183	0.00037	-0.00020	-3.96880	-89.73000	0.08319	-0.04864	-0.09229	-0.02718	-0.03257	0.00015
2.02800	0.00133	0.00183	0.00037	-0.00020	-3.87860	-89.64000	0.08319	-0.04864	-0.09229	-0.02718	-0.03257	0.00015
2.03000	0.00133	0.00183	0.00037	-0.00020	-3.87860	-89.64000	0.08319	-0.04864	-0.09229	-0.02718	-0.03257	0.00015
2.03200	0.00133	0.00183	0.00037	-0.00020	0.00000	0.00000	0.08319	-0.04864	-0.09229	-0.02718	-0.03257	0.00015
2.03400	0.00105	0.00037	0.00045	-0.00010	-3.87860	-89.64000	0.05730	-0.09229	-0.06366	-0.03011	-0.02986	-0.00142
2.03600	0.00105	0.00037	0.00045	-0.00010	-3.78840	-89.64000	0.05730	-0.09229	-0.06366	-0.03011	-0.02986	-0.00142
2.03800	0.00105	0.00037	0.00045	-0.00010	-3.78840	-89.82000	0.05730	-0.09229	-0.06366	-0.03011	-0.02986	-0.00142
2.04000	0.00105	0.00037	0.00045	-0.00010	-3.78840	-89.82000	0.05730	-0.09229	-0.06366	-0.03011	-0.02986	-0.00142
2.04200	0.00057	0.00163	0.00048	0.00000	-3.69820	-89.82000	0.01481	-0.09975	-0.05527	-0.02915	-0.01650	-0.00210
2.04400	0.00057	0.00163	0.00048	0.00000	-3.78840	-89.73000	0.01481	-0.09975	-0.05527	-0.02915	-0.01650	-0.00210
2.04600	0.00057	0.00163	0.00048	0.00000	-3.78840	-89.73000	0.01481	-0.09975	-0.05527	-0.02915	-0.01650	-0.00210
2.04800	0.00057	0.00163	0.00048	0.00000	-3.78840	-89.73000	0.01481	-0.09975	-0.05527	-0.02915	-0.01650	-0.00210
2.05000	0.00056	0.00080	0.00043	0.00031	-3.78840	-89.82000	-0.03626	-0.08469	-0.03994	-0.03184	-0.00062	-0.00096
2.05200	0.00056	0.00080	0.00043	0.00031	-3.78840	-89.82000	-0.03626	-0.08469	-0.03994	-0.03184	-0.00062	-0.00096
2.05400	0.00056	0.00080	0.00043	0.00031	-3.78840	-89.82000	-0.03626	-0.08469	-0.03994	-0.03184	-0.00062	-0.00096
2.05600	0.00056	0.00080	0.00043	0.00031	-3.69820	-89.82000	-0.03626	-0.08469	-0.03994	-0.03184	-0.00062	-0.00096
2.05800	0.00144	0.00124	0.00052	0.00003	-3.78840	-89.73000	-0.09010	-0.06198	-0.01073	-0.02887	0.00737	-0.00179
2.06000	0.00144	0.00124	0.00052	0.00003	-3.69820	-89.82000	-0.09010	-0.06198	-0.01073	-0.02887	0.00737	-0.00179
2.06200	0.00144	0.00124	0.00052	0.00003	-3.69820	-89.73000	-0.09010	-0.06198	-0.01073	-0.02887	0.00737	-0.00179
2.06400	0.00144	0.00124	0.00052	0.00003	-3.69820	-89.64000	-0.09010	-0.06198	-0.01073	-0.02887	0.00737	-0.00179
2.06600	0.00078	0.00063	0.00032	-0.00004	-3.87860	-89.73000	-0.08507	-0.00781	-0.00416	-0.02619	0.01218	0.00318
2.06800	0.00078	0.00063	0.00032	-0.00004	-3.96880	-89.82000	-0.08507	-0.00781	-0.00416	-0.02619	0.01218	0.00318
2.07000	0.00078	0.00063	0.00032	-0.00004	-3.87860	-89.91000	-0.08507	-0.00781	-0.00416	-0.02619	0.01218	0.00318
2.07200	0.00078	0.00063	0.00032	-0.00004	-4.05900	-89.82000	-0.08507	-0.00781	-0.00416	-0.02619	0.01218	0.00318
2.07400	0.00035	0.00127	0.00043	0.00008	-3.96880	-90.00000	-0.09717	0.01259	-0.00938	-0.02440	0.00787	0.00182
2.07600	0.00118	0.00154	0.00005	0.00019	-4.05900	-89.82000	-0.09717	0.01259	-0.00938	-0.02440	0.00787	0.00182
2.07800	0.00118	0.00154	0.00005	0.00019	-3.87860	-89.73000	-0.09717	0.01259	-0.00938	-0.02440	0.00787	0.00182
2.08000	0.00118	0.00154	0.00005	0.00019	-3.87860	-89.91000	-0.09717	0.01259	-0.00938	-0.02440	0.00787	0.00182
2.08200	0.00118	0.00154	0.00005	0.00019	-3.87860	-89.91000	-0.09717	0.01259	-0.00938	-0.02440	0.00787	0.00182
2.08400	0.00007	0.00144	0.00019	-0.00024	-3.87860	-89.82000	-0.05070	0.03840	-0.01015	-0.02104	0.00099	0.00358
2.08600	0.00007	0.00144	0.00019	-0.00024	-3.87860	-89.82000	-0.05070	0.03840	-0.01015	-0.02104	0.00099	0.00358
2.08800	0.00007	0.00144	0.00019	-0.00024	-3.96880	-89.82000	-0.05070	0.03840	-0.01015	-0.02104	0.00099	0.00358
2.09000	0.00007	0.00144	0.00019	-0.00024	-3.87860	-89.82000	-0.05070	0.03840	-0.01015	-0.02104	0.00099	0.00358
2.09200	0.00155	0.00061	0.00050	0.00011	-3.78840	-89.82000	-0.05070	0.03840	-0.01015	-0.02104	0.00099	0.00358
2.09400	0.00155	0.00061	0.00050	0.00011	-3.78840	-89.73000	-0.02021	0.00478	-0.00256	-0.02326	-0.00845	0.00268
2.09600	0.00144	0.00062	0.00036	0.00005	-3.78840	-89.64000	-0.02021	0.00478	-0.00256	-0.02326	-0.00845	0.00268
2.09800	0.00144	0.00062	0.00036	0.00005	-3.78840	-89.73000	-0.02021	0.00478	-0.00256	-0.02326	-0.00845	0.00268
2.10000	0.00037	0.00200	0.00035	-0.00026	-3.78840	-89.73000	-0.02950	-0.02349	-0.00447	-0.02230	-0.01083	0.00589
2.10200	0.00037	0.00200	0.00035	-0.00026	-3.78840	-89.82000	-0.02950	-0.02349	-0.00447	-0.02230	-0.01083	0.00589
2.10400	0.00037	0.00200	0.00035	-0.00026	-3.78840	-89.73000	-0.02950	-0.02349	-0.00447	-0.02230	-0.01083	0.00589
2.10600	0.00037	0.00200	0.00035	-0.00026	-3.96880	-89.82000	-0.02950	-0.02349	-0.00447	-0.02230	-0.01083	0.00589
2.10800	0.00056	0.00127	0.00042	-0.00014	-3.96880	-89.82000	0.00605	-0.05157	0.00056	-0.02955	-0.00978	0.00401
2.11000	0.00088	0.00029	0.00048	-0.00011	-4.05900	-89.82000	0.00605	-0.05157	0.00056	-0.02955	-0.00978	0.00401
2.11200	0.00088	0.00029	0.00048	-0.00011	0.00000	0.00000	0.00605	-0.05157	0.00056	-0.02955	-0.00978	0.00401
2.11400	0.00088	0.00029	0.00048	-0.00011	-3.87860	-89.82000	0.00605	-0.05157	0.00056	-0.02955	-0.00978	0.00401
2.11600	0.00088	0.00029	0.00048	-0.00011	-3.87860	-89.91000	0.00605	-0.05157	0.00056	-0.02955	-0.00978	0.00401
2.11800	0.00074	0.00185	0.00042	-0.00007	-3.87860	-89.82000	-0.02280	-0.09895	0.01638	-0.03137	-0.00861	0.00040
2.12000	0.00074	0.00185	0.00042	-0.00007	-3.87860	-90.00000	-0.02280	-0.09895	0.01638	-0.03137	-0.00861	0.00040
2.12200	0.00074	0.00185	0.00042	-0.00007	-3.78840	-90.00000	-0.02280	-0.09895	0.01638	-0.03137	-0.00861	0.00040
2.12400	0.00074	0.00185	0.00042	-0.00007	-3.87860	-89.91000	-0.02280	-0.09895	0.01638	-0.03137	-0.00861	0.00040
2.12600	0.00179	0.00040	0.00058	-0.00014	-3.87860	-89.73000	-0.03373	-0.06935	-0.01869	-0.03005	0.00278	0.00043
2.12800	0.00179	0.00040	0.00058	-0.00014	-3.87860	-89.82000	-0.03373	-0.06935	-0.01869	-0.03005	0.00278	0.00043
2.13000	0.00179	0.00040	0.00058	-0.00014	-3.87860	-89.91000	-0.03373	-0.06935	-0.01869	-0.03005	0.00278	0.00043
2.13200	0.00179	0.00040	0.00058	-0.00014	-3.78840	-89.91000	-0.03373	-0.06935	-0.01869	-0.03005	0.00278	0.00043
2.13400	0.00061	0.00204	0.00043	-0.00015	0.00000	0.00000	-0.07190	-0.04938	-0.03544	-0.02644	0.00466	-0.00160
2.13600	0.00061	0.00204	0.00043	-0.00015	-3.87860	-89.91000	-0.07190	-0.04938	-0.03544	-0.02644	0.00466	-0.00160
2.13800	0.00061	0.00204	0.00043	-0.00015	-3.87860	-89.82000	-0.07190	-0.04938	-0.03544	-0.02644	0.00466	-0.00160
2.14000	0.00061	0.00204	0.00043	-0.00015	-3.87860	-89.82000	-0.07190	-0.04938	-0.03544	-0.02644	0.00466	-0.00160
2.14200	-0.00009	0.00102	0.00061	-0.00007	-3.78840	-89.73000	-0.06897	-0.04265	-0.04479	-0.02480	0.00635	-0.00272
2.14400	-0.00009	0.00102	0.00061	-0.00007	-3.87860	-89.73000	-0.06897	-0.04265	-0.04479	-0.02480	0.00635	-0.00272
2.14600	-0.00009	0.00102	0.00061	-0.00007	-3.87860	-89.64000	-0.06897	-0.04265	-0.04479	-0.02480	0.00635	-0.00272
2.14800	-0.00009	0.00102	0.00061	-0.00007	-3.87860	-89.64000	-0.06897	-0.04265	-0.04479	-0.02480	0.00635	-0.00272
2.15000	0.00104	0.00228	0.00053	-0.00023	-3.96880	-89.64000	-0.04866	-0.03130	-0.05817	-0.02591	0.00108	-0.00444
2.15200	0.00104	0.00228	0.00053	-0.00023	-3.87860	-89.64000	-0.04866	-0.03130	-0.05817	-0.02591	0.00108	-0.00444
2.15400	0.00104	0.00228	0.00053	-0.00023	-3.87860	-89.73000	-0.04866	-0.03130	-0.05817	-0.02591	0.00108	-0.00444
2.15600	0.00104	0.00228	0.00053	-0.00023	0.00000	0.00000	-0.04866	-0.03130	-0.05817	-0.02591	0.00108	-0.00444
2.15800	0.00155	0.00077	0.00050	0.00003	-3.78840	-89.82000	-0.03382	-0.03661	-0.07958	-0.02894	-0.00953	-0.00219
2.16000	0.00155	0.00077	0.00050	0.00003	-3.69820	-89.73000	-0.03382	-0.03661	-0.07958	-0.02894	-0.00953	-0.00219
2.16200	0.00155	0.00077	0.00050	0.00003	-3.69820	-89.73000	-0.03382	-0.03661	-0.07958	-0.02894	-0.00953	-0.00219
2.16400	0.00155	0.00077	0.00050	0.00003	-3.69820	-89.82000	-0.03382	-0.03661	-0.07958	-0.02894	-0.00953	-0.00219
2.16600	0.00056	0.00172	0.00026	0.00001	-3.69820	-89.82000	0.02842	-0.03923	-0.08010	-0.02850	-0.01656	-0.00225
2.16800	0.00056	0.00172	0.00026	0.00001	-3.69820	-89.82000	0.02842	-0.03923	-0.08010	-0.02850	-0.01656	-0.00225
2.17000	0.00056	0.00172	0.00026	0.00001	-3.69820	-89.73000	0.02842	-0.03923	-0.08010	-0.02850	-0.01656	-0.00225
2.17200	0.00056	0.00172	0.00026	0.00001	-3.78840	-89.73000	0.02842	-0.03923	-0.08010	-0.02850	-0.01656	-0.00225
2.17400	0.00048	0.00066	0.00038	-0.00007	-3.78840	-89.64000	0.05854	-0.04614	-0.08196	-0.02709	-0.02887	-0.00028
2.17600	-0.00021	0.00385	0.00006	-0.00001	-3.78840	-89.64000	0.05854	-0.04614	-0.08196	-0.02709	-0.02887	-0.00028
2.17800	-0.00021	0.00385	0.00006	-0.00001	-3.69820	-89.64000	0.05854	-0.04614	-0.08196	-0.02709	-0.02887	-0.00028
2.18000	-0.00021	0.00385	0.00006	-0.00001	-3.78840	-89.64000	0.05854	-0.04614	-0.08196	-0.02709	-0.02887	-0.00028
2.18200	-0.00021	0.00385	0.00006	-0.00001	-3.78840	-89.73000	0.05854	-0.04614	-0.08196	-0.02709	-0.02887	-0.00028
2.18400	0.00183	0.00118	0.00043	-0.00015	-3.78840	-89.73000	0.06431	-0.02330	-0.07480	-0.02604	-0.03347	0.00213
2.18600	0.00183	0.00118	0.00043	-0.00015	-3.87860	-89.73000	0.06431	-0.02330	-0.07480	-0.02604	-0.03347	0.00213
2.18800	0.00183	0.00118	0.00043	-0.00015	-3.87860	-89.64000	0.06431	-0.02330	-0.07480	-0.02604	-0.03347	0.00213
2.19000	0.00183	0.00118	0.00043	-0.00015	0.00000	0.00000	0.06431	-0.02330	-0.07480	-0.02604	-0.03347	0.00213
2.19200	0.00072	0.00073	0.00060	0.00003	0.00000	0.00000	0.05283	-0.01123	-0.05722	-0.02323	-0.02905	0.00309
2.19400	0.00072	0.00073	0.00060	0.00003	-4.05900	-89.73000	0.05283	-0.01123	-0.05722	-0.02323	-0.02905	0.00309
2.19600	0.00072	0.00073	0.00060	0.00003	-3.87860	-89.73000	0.05283	-0.01123	-0.05722	-0.02323	-0.02905	0.00309
2.19800	0.00072	0.00073	0.00060	0.00003	-3.87860	-89.73000	0.05283	-0.01123	-0.05722	-0.02323	-0.02905	0.00309
2.20000	0.00051	0.00094	0.00048	0.00032	-3.96880	-89.73000	0.01623	-0.00133	-0.05642	-0.02212	-0.01811	0.00444
2.20200	0.00051	0.00094	0.00048	0.00032	-3.96880	-89.82000	0.01623	-0.00133	-0.05642	-0.02212	-0.01811	0.00444
2.20400	0.00051	0.00094	0.00048	0.00032	-3.78840	-89.82000	0.01623	-0.00133	-0.05642	-0.02212	-0.01811	0.00444
2.20600	0.00051	0.00094	0.00048	0.00032	-3.69820	-89.82000	0.01623	-0.00133	-0.05642	-0.02212	-0.01811	0.00444
2.20800	0.00013	0.00098	0.00039	-0.00001	-3.78840	-89.73000	0.01623	-0.00133	-0.05642	-0.02212	-0.01811	0.00444
2.21000	0.00012	0.00134	0.00068	-0.00011	-3.78840	-89.64000	-0.01463	-0.00037	-0.07458	-0.02153	-0.00447	0.00389
2.21200	0.00012	0.00134	0.00068	-0.00011	-3.78840	-89.73000	-0.01463	-0.00037	-0.07458	-0.02153	-0.00447	0.00389
2.21400	0.00012	0.00134	0.00068	-0.00011	-3.78840	-89.73000	-0.01463	-0.00037	-0.07458	-0.02153	-0.00447	0.00389
2.21600	0.00012	0.00134	0.00068	-0.00011	-3.78840	-89.73000	-0.01463	-0.00037	-0.07458	-0.02153	-0.00447	0.00389
2.21800	0.00202	0.00104	0.00031	-0.00018	-3.87860	-89.73000	-0.06952	-0.01732	-0.07307	-0.02147	0.00268	0.00065
2.22000	0.00202	0.00104	0.00031	-0.00018	-3.87860	-89.82000	-0.06952	-0.01732	-0.07307	-0.02147	0.00268	0.00065
2.22200	0.00202	0.00104	0.00031	-0.00018	-3.87860	-89.91000	-0.06952	-0.01732	-0.07307	-0.02147	0.00268	0.00065
2.22400	0.00202	0.00104	0.00031	-0.00018	-3.87860	-89.91000	-0.06952	-0.01732	-0.07307	-0.02147	0.00268	0.00065
2.22600	0.00048	0.00179	0.00026	-0.00015	-3.87860	-89.91000	-0.05317	-0.01525	-0.07295	-0.01993	0.00552	-0.00210
2.22800	0.00071	0.00087	0.00045	0.00003	-3.78840	-89.91000	-0.05317	-0.01525	-0.07295	-0.01993	0.00552	-0.00210
2.23000	0.00071	0.00087	0.00045	0.00003	-3.78840	-89.73000	-0.05317	-0.01525	-0.07295	-0.01993	0.00552	-0.00210
2.23200	0.00071	0.00087	0.00045	0.00003	-3.87860	-89.82000	-0.05317	-0.01525	-0.07295	-0.01993	0.00552	-0.00210
2.23400	0.00071	0.00087	0.00045	0.00003	-3.87860	-89.82000	-0.05317	-0.01525	-0.07295	-0.01993	0.00552	-0.00210
2.23600	0.00061	0.00066	0.00053	0.00019	0.00000	0.00000	-0.04252	-0.04883	-0.03853	-0.02048	0.00163	-0.00127
2.23800	0.00061	0.00066	0.00053	0.00019	-3.78840	-89.64000	-0.04252	-0.04883	-0.03853	-0.02048	0.00163	-0.00127
2.24000	0.00061	0.00066	0.00053	0.00019	-3.69820	-89.64000	-0.04252	-0.04883	-0.03853	-0.02048	0.00163	-0.00127
2.24200	0.00061	0.00066	0.00053	0.00019	-3.69820	-89.64000	-0.04252	-0.04883	-0.03853	-0.02048	0.00163	-0.00127
2.24400	0.00073	0.00182	0.00036	0.00006	-3.78840	-89.73000	-0.00429	-0.04475	-0.02761	-0.01786	-0.00827	-0.00512
2.24600	0.00073	0.00182	0.00036	0.00006	-3.87860	-89.82000	-0.00429	-0.04475	-0.02761	-0.01786	-0.00827	-0.00512
2.24800	0.00073	0.00182	0.00036	0.00006	-3.87860	-89.91000	-0.00429	-0.04475	-0.02761	-0.01786	-0.00827	-0.00512
2.25000	0.00073	0.00182	0.00036	0.00006	-3.87860	-89.82000	-0.00429	-0.04475	-0.02761	-0.01786	-0.00827	-0.00512
2.25200	0.00154	0.00057	0.00028	-0.00025	-3.78840	-89.91000	0.02580	-0.05796	-0.00046	-0.01873	-0.01588	-0.00512
2.25400	0.00154	0.00057	0.00028	-0.00025	-3.78840	-89.82000	0.02580	-0.05796	-0.00046	-0.01873	-0.01588	-0.00512
2.25600	0.00154	0.00057	0.00028	-0.00025	-3.78840	-89.82000	0.02580	-0.05796	-0.00046	-0.01873	-0.01588	-0.00512
2.25800	0.00154	0.00057	0.00028	-0.00025	0.00000	0.00000	0.02580	-0.05796	-0.00046	-0.01873	-0.01588	-0.00512
2.26000	0.00034	0.00212	0.00029	0.00002	-3.78840	-89.82000	0.00870	-0.05852	0.02131	-0.01675	-0.01650	-0.00494
2.26200	0.00034	0.00212	0.00029	0.00002	-3.78840	-89.91000	0.00870	-0.05852	0.02131	-0.01675	-0.01650	-0.00494
2.26400	0.00034	0.00212	0.00029	0.00002	-3.69820	-89.91000	0.00870	-0.05852	0.02131	-0.01675	-0.01650	-0.00494
2.26600	0.00034	0.00212	0.00029	0.00002	-3.69820	-89.91000	0.00870	-0.05852	0.02131	-0.01675	-0.01650	-0.00494
2.26800	0.00013	0.00048	0.00052	-0.00021	-3.78840	-90.00000	-0.01361	-0.00877	0.01737	-0.01536	-0.00654	-0.00231
2.27000	0.00013	0.00048	0.00052	-0.00021	-3.87860	-89.82000	-0.01361	-0.00877	0.01737	-0.01536	-0.00654	-0.00231
2.27200	0.00013	0.00048	0.00052	-0.00021	0.00000	0.00000	-0.01361	-0.00877	0.01737	-0.01536	-0.00654	-0.00231
2.27400	0.00013	0.00048	0.00052	-0.00021	-3.87860	-89.91000	-0.01361	-0.00877	0.01737	-0.01536	-0.00654	-0.00231
2.27600	0.00105	0.00178	0.00041	-0.00011	-3.96880	-89.91000	-0.05422	0.01019	0.03205	-0.01734	0.00271	-0.00136
2.27800	0.00105	0.00178	0.00041	-0.00011	-3.96880	-89.91000	-0.05422	0.01019	0.03205	-0.01734	0.00271	-0.00136
2.28000	0.00105	0.00178	0.00041	-0.00011	-3.87860	-90.00000	-0.05422	0.01019	0.03205	-0.01734	0.00271	-0.00136
2.28200	0.00105	0.00178	0.00041	-0.00011	-3.78840	-89.91000	-0.05422	0.01019	0.03205	-0.01734	0.00271	-0.00136
2.28400	0.00127	0.00038	0.00056	-0.00016	-3.78840	-89.82000	-0.06807	0.04867	0.01635	-0.00870	0.01120	0.00352
2.28600	0.00127	0.00038	0.00056	-0.00016	-3.78840	-89.82000	-0.06807	0.04867	0.01635	-0.00870	0.01120	0.00352
2.28800	0.00127	0.00038	0.00056	-0.00016	-3.78840	-89.82000	-0.06807	0.04867	0.01635	-0.00870	0.01120	0.00352
2.29000	0.00127	0.00038	0.00056	-0.00016	-3.78840	-89.82000	-0.06807	0.04867	0.01635	-0.00870	0.01120	0.00352
2.29200	0.00027	0.00161	0.00032	0.00027	-3.69820	-89.73000	-0.07190	0.07198	-0.02795	-0.00811	0.00873	0.00559
2.29400	0.00027	0.00161	0.00032	0.00027	0.00000	0.00000	-0.07190	0.07198	-0.02795	-0.00811	0.00873	0.00559
2.29600	0.00027	0.00161	0.00032	0.00027	-3.87860	-89.73000	-0.07190	0.07198	-0.02795	-0.00811	0.00873	0.00559
2.29800	0.00027	0.00161	0.00032	0.00027	-3.87860	-89.64000	-0.07190	0.07198	-0.02795	-0.00811	0.00873	0.00559
2.30000	0.00052	0.00073	0.00054	0.00012	-3.87860	-89.64000	-0.05474	0.05790	-0.04454	-0.00623	0.00025	0.00546
2.30200	0.00052	0.00073	0.00054	0.00012	-3.87860	-89.64000	-0.05474	0.05790	-0.04454	-0.00623	0.00025	0.00546
2.30400	0.00052	0.00073	0.00054	0.00012	-3.87860	-89.64000	-0.05474	0.05790	-0.04454	-0.00623	0.00025	0.00546
2.30600	0.00052	0.00073	0.00054	0.00012	-3.87860	-89.73000	-0.05474	0.05790	-0.04454	-0.00623	0.00025	0.00546
2.30800	0.00151	0.00138	0.00031	-0.00011	-3.96880	-89.82000	-0.05474	0.05790	-0.04454	-0.00623	0.00025	0.00546
2.31000	0.00106	0.00000	0.00030	-0.00025	-4.05900	-89.82000	0.01472	0.05324	-0.04923	-0.00386	-0.00962	0.00349
2.31200	0.00106	0.00000	0.00030	-0.00025	-4.05900	-89.73000	0.01472	0.05324	-0.04923	-0.00386	-0.00962	0.00349
2.31400	0.00106	0.00000	0.00030	-0.00025	-4.05900	-89.64000	0.01472	0.05324	-0.04923	-0.00386	-0.00962	0.00349
2.31600	0.00106	0.00000	0.00030	-0.00025	-4.05900	-89.64000	0.01472	0.05324	-0.04923	-0.00386	-0.00962	0.00349
2.31800	0.00068	0.00143	0.00036	0.00015	-3.87860	-89.64000	0.01472	0.05324	-0.04923	-0.00386	-0.00962	0.00349
2.32000	-0.00013	0.00143	0.00034	-0.00006	-3.87860	-89.64000	0.04336	0.02222	-0.05564	-0.00629	-0.02683	0.00306
2.32200	-0.00013	0.00143	0.00034	-0.00006	-3.78840	-89.82000	0.04336	0.02222	-0.05564	-0.00629	-0.02683	0.00306
2.32400	-0.00013	0.00143	0.00034	-0.00006	-3.78840	-89.73000	0.04336	0.02222	-0.05564	-0.00629	-0.02683	0.00306
2.32600	-0.00013	0.00143	0.00034	-0.00006	-3.87860	-89.64000	0.04336	0.02222	-0.05564	-0.00629	-0.02683	0.00306
2.32800	0.00041	0.00063	0.00049	0.00013	-3.87860	-89.73000	0.04336	0.02222	-0.05564	-0.00629	-0.02683	0.00306
2.33000	0.00010	0.00087	0.00007	0.00014	-3.87860	-89.73000	0.07826	-0.01315	-0.05790	-0.00703	-0.03007	-0.00361
2.33200	0.00010	0.00087	0.00007	0.00014	-3.78840	-89.73000	0.07826	-0.01315	-0.05790	-0.00703	-0.03007	-0.00361
2.33400	0.00010	0.00087	0.00007	0.00014	-3.78840	-89.73000	0.07826	-0.01315	-0.05790	-0.00703	-0.03007	-0.00361
2.33600	0.00010	0.00087	0.00007	0.00014	-3.78840	-89.73000	0.07826	-0.01315	-0.05790	-0.00703	-0.03007	-0.00361
2.33800	0.00083	0.00139	0.00038	-0.00034	-3.87860	-89.73000	0.05604	-0.04988	-0.04830	-0.01049	-0.02393	-0.00623
2.34000	0.00083	0.00139	0.00038	-0.00034	-3.87860	-89.73000	0.05604	-0.04988	-0.04830	-0.01049	-0.02393	-0.00623
2.34200	0.00083	0.00139	0.00038	-0.00034	-3.78840	-89.64000	0.05604	-0.04988	-0.04830	-0.01049	-0.02393	-0.00623
2.34400	0.00083	0.00139	0.00038	-0.00034	-3.87860	-89.55000	0.05604	-0.04988	-0.04830	-0.01049	-0.02393	-0.00623
2.34600	0.00145	0.00041	0.00056	-0.00010	-3.87860	-89.64000	0.02827	-0.04642	-0.07138	-0.01145	-0.01258	-0.00818
2.34800	0.00145	0.00041	0.00056	-0.00010	-3.96880	-89.73000	0.02827	-0.04642	-0.07138	-0.01145	-0.01258	-0.00818
2.35000	0.00145	0.00041	0.00056	-0.00010	-3.96880	-89.64000	0.02827	-0.04642	-0.07138	-0.01145	-0.01258	-0.00818
2.35200	0.00145	0.00041	0.00056	-0.00010	0.00000	0.00000	0.02827	-0.04642	-0.07138	-0.01145	-0.01258	-0.00818
2.35400	0.00033	0.00141	0.00039	0.00000	-3.87860	-89.55000	-0.00700	-0.02701	-0.07279	-0.01058	-0.01055	-0.00605
2.35600	0.00033	0.00141	0.00039	0.00000	-3.87860	-89.55000	-0.00700	-0.02701	-0.07279	-0.01058	-0.01055	-0.00605
2.35800	0.00033	0.00141	0.00039	0.00000	-3.87860	-89.64000	-0.00700	-0.02701	-0.07279	-0.01058	-0.01055	-0.00605
2.36000	0.00033	0.00141	0.00039	0.00000	-3.87860	-89.64000	-0.00700	-0.02701	-0.07279	-0.01058	-0.01055	-0.00605
2.36200	0.00059	0.00015	0.00041	-0.00012	-3.78840	-89.55000	-0.01410	0.01333	-0.06524	-0.00512	-0.00716	-0.00373
2.36400	0.00059	0.00015	0.00041	-0.00012	-3.78840	-89.55000	-0.01410	0.01333	-0.06524	-0.00512	-0.00716	-0.00373
2.36600	0.00059	0.00015	0.00041	-0.00012	-3.78840	-89.64000	-0.01410	0.01333	-0.06524	-0.00512	-0.00716	-0.00373
2.36800	0.00059	0.00015	0.00041	-0.00012	-3.69820	-89.55000	-0.01410	0.01333	-0.06524	-0.00512	-0.00716	-0.00373
2.37000	0.00129	0.00189	0.00014	0.00004	-3.69820	-89.64000	-0.01179	0.04120	-0.06403	-0.00605	-0.00441	-0.00009
2.37200	0.00129	0.00189	0.00014	0.00004	-3.87860	-89.64000	-0.01179	0.04120	-0.06403	-0.00605	-0.00441	-0.00009
2.37400	0.00129	0.00189	0.00014	0.00004	0.00000	0.00000	-0.01179	0.04120	-0.06403	-0.00605	-0.00441	-0.00009
2.37600	0.00129	0.00189	0.00014	0.00004	-3.87860	-89.64000	-0.01179	0.04120	-0.06403	-0.00605	-0.00441	-0.00009
2.37800	0.00115	0.00101	0.00061	0.00020	-3.78840	-89.64000	-0.03033	0.05065	-0.05904	-0.00537	-0.00780	0.00108
2.38000	0.00115	0.00101	0.00061	0.00020	-3.87860	-89.73000	-0.03033	0.05065	-0.05904	-0.00537	-0.00780	0.00108
2.38200	0.00115	0.00101	0.00061	0.00020	-3.87860	-89.73000	-0.03033	0.05065	-0.05904	-0.00537	-0.00780	0.00108
2.38400	0.00115	0.00101	0.00061	0.00020	-3.78840	-89.82000	-0.03033	0.05065	-0.05904	-0.00537	-0.00780	0.00108
2.38600	0.00051	0.00168	0.00044	-0.00018	-3.78840	-89.73000	0.00373	0.04420	-0.03276	-0.00534	-0.00848	0.00367
2.38800	0.00051	0.00168	0.00044	-0.00018	-3.78840	-89.73000	0.00373	0.04420	-0.03276	-0.00534	-0.00848	0.00367
2.39000	0.00051	0.00168	0.00044	-0.00018	-3.87860	-89.82000	0.00373	0.04420	-0.03276	-0.00534	-0.00848	0.00367
2.39200	0.00051	0.00168	0.00044	-0.00018	-3.78840	-89.82000	0.00373	0.04420	-0.03276	-0.00534	-0.00848	0.00367
2.39400	0.00061	0.00105	0.00055	0.00006	-3.69820	-89.82000	0.01302	0.01213	0.00672	-0.01194	-0.01110	0.00500
2.39600	0.00061	0.00105	0.00055	0.00006	-3.78840	-89.73000	0.01302	0.01213	0.00672	-0.01194	-0.01110	0.00500
2.39800	0.00061	0.00105	0.00055	0.00006	-3.96880	-89.73000	0.01302	0.01213	0.00672	-0.01194	-0.01110	0.00500
2.40000	0.00061	0.00105	0.00055	0.00006	-3.87860	-89.73000	0.01302	0.01213	0.00672	-0.01194	-0.01110	0.00500
2.40200	0.00141	0.00161	0.00032	-0.00007	-3.87860	-89.82000	0.01065	0.01451	0.00611	-0.01126	-0.01585	0.00555
2.40400	0.00141	0.00161	0.00032	-0.00007	-3.78840	-89.82000	0.01065	0.01451	0.00611	-0.01126	-0.01585	0.00555
2.40600	0.00141	0.00161	0.00032	-0.00007	-3.87860	-89.82000	0.01065	0.01451	0.00611	-0.01126	-0.01585	0.00555
2.40800	0.00141	0.00161	0.00032	-0.00007	-3.78840	-89.73000	0.01065	0.01451	0.00611	-0.01126	-0.01585	0.00555
2.41000	0.00104	0.00105	0.00048	0.00001	-3.96880	-89.82000	0.03601	0.01951	-0.00120	-0.01061	-0.01706	0.00349
2.41200	0.00104	0.00105	0.00048	0.00001	-3.96880	-89.82000	0.03601	0.01951	-0.00120	-0.01061	-0.01706	0.00349
2.41400	0.00104	0.00105	0.00048	0.00001	-3.96880	-89.91000	0.03601	0.01951	-0.00120	-0.01061	-0.01706	0.00349
2.41600	0.00104	0.00105	0.00048	0.00001	-3.87860	-89.82000	0.03601	0.01951	-0.00120	-0.01061	-0.01706	0.00349
2.41800	0.00039	0.00123	0.00052	0.00024	0.00000	0.00000	0.01170	0.01157	-0.00009	-0.00648	-0.01505	0.00015
2.42000	0.00039	0.00123	0.00052	0.00024	-3.87860	-89.82000	0.01170	0.01157	-0.00009	-0.00648	-0.01505	0.00015
2.42200	0.00039	0.00123	0.00052	0.00024	-3.78840	-89.82000	0.01170	0.01157	-0.00009	-0.00648	-0.01505	0.00015
2.42400	0.00039	0.00123	0.00052	0.00024	-3.87860	-89.82000	0.01170	0.01157	-0.00009	-0.00648	-0.01505	0.00015
2.42600	0.00045	0.00102	0.00047	0.00004	-3.78840	-89.64000	-0.00253	0.02732	-0.01558	-0.00734	-0.00888	-0.00194
2.42800	0.00045	0.00102	0.00047	0.00004	-3.87860	-89.73000	-0.00253	0.02732	-0.01558	-0.00734	-0.00888	-0.00194
2.43000	0.00045	0.00102	0.00047	0.00004	-3.87860	-89.73000	-0.00253	0.02732	-0.01558	-0.00734	-0.00888	-0.00194
2.43200	0.00045	0.00102	0.00047	0.00004	-3.96880	-89.73000	-0.00253	0.02732	-0.01558	-0.00734	-0.00888	-0.00194
2.43400	0.00156	0.00101	0.00031	-0.00017	-3.87860	-89.73000	-0.03462	0.00645	-0.04035	-0.00966	-0.00435	-0.00401
2.43600	0.00156	0.00101	0.00031	-0.00017	-3.87860	-89.73000	-0.03462	0.00645	-0.04035	-0.00966	-0.00435	-0.00401
2.43800	0.00156	0.00101	0.00031	-0.00017	-3.87860	-89.73000	-0.03462	0.00645	-0.04035	-0.00966	-0.00435	-0.00401
2.44000	0.00156	0.00101	0.00031	-0.00017	-3.87860	-89.82000	-0.03462	0.00645	-0.04035	-0.00966	-0.00435	-0.00401
2.44200	0.00020	0.00106	0.00045	-0.00009	-3.78840	-89.82000	-0.05230	-0.01941	-0.04241	-0.01027	0.00247	-0.00401
2.44400	0.00020	0.00106	0.00045	-0.00009	-3.87860	-89.82000	-0.05230	-0.01941	-0.04241	-0.01027	0.00247	-0.00401
2.44600	0.00020	0.00106	0.00045	-0.00009	-3.78840	-89.82000	-0.05230	-0.01941	-0.04241	-0.01027	0.00247	-0.00401
2.44800	0.00020	0.00106	0.00045	-0.00009	-3.78840	-89.73000	-0.05230	-0.01941	-0.04241	-0.01027	0.00247	-0.00401
2.45000	0.00033	0.00112	0.00059	-0.00010	-3.87860	-89.82000	-0.04305	-0.02157	-0.04198	-0.01354	0.00709	-0.00759
2.45200	0.00033	0.00112	0.00059	-0.00010	-3.96880	-89.82000	-0.04305	-0.02157	-0.04198	-0.01354	0.00709	-0.00759
2.45400	0.00033	0.00112	0.00059	-0.00010	-3.96880	-89.73000	-0.04305	-0.02157	-0.04198	-0.01354	0.00709	-0.00759
2.45600	0.00033	0.00112	0.00059	-0.00010	-3.87860	-89.64000	-0.04305	-0.02157	-0.04198	-0.01354	0.00709	-0.00759
2.45800	0.00023	0.00069	0.00053	0.00000	-3.87860	-89.55000	-0.05416	-0.04336	-0.04371	-0.01616	-0.00056	-0.00454
2.46000	0.00023	0.00069	0.00053	0.00000	-3.96880	-89.73000	-0.05416	-0.04336	-0.04371	-0.01616	-0.00056	-0.00454
2.46200	0.00023	0.00069	0.00053	0.00000	-3.87860	-89.64000	-0.05416	-0.04336	-0.04371	-0.01616	-0.00056	-0.00454
2.46400	0.00023	0.00069	0.00053	0.00000	-3.87860	-89.64000	-0.05416	-0.04336	-0.04371	-0.01616	-0.00056	-0.00454
2.46600	0.00151	0.00108	0.00052	0.00058	-3.78840	-89.64000	-0.02382	-0.03522	-0.02597	-0.01863	-0.00694	-0.00009
2.46800	0.00151	0.00108	0.00052	0.00058	-3.78840	-89.55000	-0.02382	-0.03522	-0.02597	-0.01863	-0.00694	-0.00009
2.47000	0.00151	0.00108	0.00052	0.00058	-3.87860	-89.55000	-0.02382	-0.03522	-0.02597	-0.01863	-0.00694	-0.00009
2.47200	0.00151	0.00108	0.00052	0.00058	-3.87860	-89.64000	-0.02382	-0.03522	-0.02597	-0.01863	-0.00694	-0.00009
2.47400	0.00059	0.00139	0.00040	-0.00007	-3.87860	-89.55000	-0.00413	-0.02188	-0.01638	-0.01799	-0.01058	0.00040
2.47600	0.00059	0.00139	0.00040	-0.00007	-3.96880	-89.64000	-0.00413	-0.02188	-0.01638	-0.01799	-0.01058	0.00040
2.47800	0.00059	0.00139	0.00040	-0.00007	-4.05900	-89.73000	-0.00413	-0.02188	-0.01638	-0.01799	-0.01058	0.00040
2.48000	0.00059	0.00139	0.00040	-0.00007	-3.96880	-89.64000	-0.00413	-0.02188	-0.01638	-0.01799	-0.01058	0.00040
2.48200	0.00063	0.00072	0.00049	-0.00013	-3.96880	-89.64000	-0.00475	-0.00083	-0.03097	-0.01416	-0.01080	0.00367
2.48400	0.00063	0.00072	0.00049	-0.00013	-4.05900	-89.64000	-0.00475	-0.00083	-0.03097	-0.01416	-0.01080	0.00367
2.48600	0.00063	0.00072	0.00049	-0.00013	-4.14920	-89.64000	-0.00475	-0.00083	-0.03097	-0.01416	-0.01080	0.00367
2.48800	0.00063	0.00072	0.00049	-0.00013	-4.14920	-89.64000	-0.00475	-0.00083	-0.03097	-0.01416	-0.01080	0.00367
2.49000	0.00026	0.00140	0.00059	0.00007	-4.14920	-89.73000	0.00904	0.01682	-0.03868	-0.01632	-0.01221	0.00583
2.49200	0.00026	0.00140	0.00059	0.00007	-3.96880	-89.82000	0.00904	0.01682	-0.03868	-0.01632	-0.01221	0.00583
2.49400	0.00026	0.00140	0.00059	0.00007	-3.96880	-89.82000	0.00904	0.01682	-0.03868	-0.01632	-0.01221	0.00583
2.49600	0.00026	0.00140	0.00059	0.00007	-3.96880	-89.82000	0.00904	0.01682	-0.03868	-0.01632	-0.01221	0.00583
2.49800	0.00201	0.00123	0.00035	-0.00014	0.00000	0.00000	-0.00728	0.01108	-0.05774	-0.01610	-0.01419	0.00673
2.50000	0.00201	0.00123	0.00035	-0.00014	-3.96880	-89.73000	-0.00728	0.01108	-0.05774	-0.01610	-0.01419	0.00673
2.50200	0.00201	0.00123	0.00035	-0.00014	-3.96880	-89.82000	-0.00728	0.01108	-0.05774	-0.01610	-0.01419	0.00673
2.50400	0.00201	0.00123	0.00035	-0.00014	-4.05900	-89.82000	-0.00728	0.01108	-0.05774	-0.01610	-0.01419	0.00673
2.50600	0.00034	0.00160	0.00038	-0.00005	-3.96880	-89.82000	-0.01290	0.02417	-0.09361	-0.01700	-0.00790	0.00821
2.50800	0.00034	0.00160	0.00038	-0.00005	-3.96880	-89.82000	-0.01290	0.02417	-0.09361	-0.01700	-0.00790	0.00821
2.51000	0.00034	0.00160	0.00038	-0.00005	-3.87860	-89.82000	-0.01290	0.02417	-0.09361	-0.01700	-0.00790	0.00821
2.51200	0.00034	0.00160	0.00038	-0.00005	-3.87860	-89.73000	-0.01290	0.02417	-0.09361	-0.01700	-0.00790	0.00821
2.51400	0.00030	0.00087	0.00017	0.00006	-3.96880	-89.73000	-0.01506	0.00991	-0.09309	-0.01863	-0.00848	0.00370
2.51600	0.00030	0.00087	0.00017	0.00006	-3.96880	-89.73000	-0.01506	0.00991	-0.09309	-0.01863	-0.00848	0.00370
2.51800	0.00030	0.00087	0.00017	0.00006	-3.96880	-89.82000	-0.01506	0.00991	-0.09309	-0.01863	-0.00848	0.00370
2.52000	0.00030	0.00087	0.00017	0.00006	-3.96880	-89.82000	-0.01506	0.00991	-0.09309	-0.01863	-0.00848	0.00370
2.52200	0.00032	0.00166	0.00029	-0.00019	-3.87860	-89.73000	-0.02157	-0.00630	-0.08279	-0.01761	-0.00972	0.00083
2.52400	0.00032	0.00166	0.00029	-0.00019	-3.96880	-89.82000	-0.02157	-0.00630	-0.08279	-0.01761	-0.00972	0.00083
2.52600	0.00032	0.00166	0.00029	-0.00019	-3.87860	-89.82000	-0.02157	-0.00630	-0.08279	-0.01761	-0.00972	0.00083
2.52800	0.00032	0.00166	0.00029	-0.00019	-3.96880	-89.82000	-0.02157	-0.00630	-0.08279	-0.01761	-0.00972	0.00083
2.53000	0.00219	0.00080	0.00031	0.00014	-3.96880	-89.82000	-0.02157	-0.00630	-0.08279	-0.01761	-0.00972	0.00083
2.53200	0.00037	-0.00015	0.00009	0.00019	-3.96880	-89.91000	-0.00006	-0.03333	-0.07468	-0.02264	-0.01169	-0.00191
2.53400	0.00037	-0.00015	0.00009	0.00019	-3.96880	-89.82000	-0.00006	-0.03333	-0.07468	-0.02264	-0.01169	-0.00191
2.53600	0.00037	-0.00015	0.00009	0.00019	-3.96880	-89.73000	-0.00006	-0.03333	-0.07468	-0.02264	-0.01169	-0.00191
2.53800	0.00037	-0.00015	0.00009	0.00019	-3.96880	-89.64000	-0.00006	-0.03333	-0.07468	-0.02264	-0.01169	-0.00191
2.54000	0.00018	0.00149	0.00029	-0.00001	-3.87860	-89.73000	-0.00006	-0.03333	-0.07468	-0.02264	-0.01169	-0.00191
2.54200	0.00076	0.00118	0.00066	0.00000	-3.78840	-89.82000	-0.00867	-0.06778	-0.05762	-0.02631	-0.01443	-0.00667
2.54400	0.00076	0.00118	0.00066	0.00000	-3.78840	-89.73000	-0.00867	-0.06778	-0.05762	-0.02631	-0.01443	-0.00667
2.54600	0.00076	0.00118	0.00066	0.00000	-3.78840	-89.73000	-0.00867	-0.06778	-0.05762	-0.02631	-0.01443	-0.00667
2.54800	0.00076	0.00118	0.00066	0.00000	-3.78840	-89.82000	-0.00867	-0.06778	-0.05762	-0.02631	-0.01443	-0.00667
2.55000	0.00046	0.00038	0.00119	-0.00011	0.00000	0.00000	0.02836	-0.06512	-0.03772	-0.02607	-0.01521	-0.00608
2.55200	0.00046	0.00038	0.00119	-0.00011	-3.96880	-89.82000	0.02836	-0.06512	-0.03772	-0.02607	-0.01521	-0.00608
2.55400	0.00046	0.00038	0.00119	-0.00011	-3.96880	-89.82000	0.02836	-0.06512	-0.03772	-0.02607	-0.01521	-0.00608
2.55600	0.00046	0.00038	0.00119	-0.00011	-3.87860	-89.73000	0.02836	-0.06512	-0.03772	-0.02607	-0.01521	-0.00608
2.55800	0.00141	0.00158	0.00054	0.00004	-3.78840	-89.73000	0.01990	-0.04957	-0.02859	-0.02548	-0.01869	-0.00383
2.56000	0.00141	0.00158	0.00054	0.00004	-3.78840	-89.73000	0.01990	-0.04957	-0.02859	-0.02548	-0.01869	-0.00383
2.56200	0.00141	0.00158	0.00054	0.00004	-3.69820	-89.73000	0.01990	-0.04957	-0.02859	-0.02548	-0.01869	-0.00383
2.56400	0.00141	0.00158	0.00054	0.00004	-3.78840	-89.64000	0.01990	-0.04957	-0.02859	-0.02548	-0.01869	-0.00383
2.56600	0.00087	0.00066	0.00025	-0.00016	-3.78840	-89.64000	0.02348	-0.02238	-0.02091	-0.02653	-0.01937	-0.00231
2.56800	0.00087	0.00066	0.00025	-0.00016	-3.78840	-89.64000	0.02348	-0.02238	-0.02091	-0.02653	-0.01937	-0.00231
2.57000	0.00087	0.00066	0.00025	-0.00016	-3.78840	-89.73000	0.02348	-0.02238	-0.02091	-0.02653	-0.01937	-0.00231
2.57200	0.00087	0.00066	0.00025	-0.00016	-3.69820	-89.73000	0.02348	-0.02238	-0.02091	-0.02653	-0.01937	-0.00231
2.57400	0.00048	0.00126	0.00045	-0.00005	-3.78840	-89.73000	0.02348	-0.02238	-0.02091	-0.02653	-0.01937	-0.00231
2.57600	0.00116	-0.00007	0.00089	-0.00053	-3.78840	-89.73000	-0.00099	-0.03315	-0.02693	-0.02329	-0.01814	0.00201
2.57800	0.00116	-0.00007	0.00089	-0.00053	-3.78840	-89.64000	-0.00099	-0.03315	-0.02693	-0.02329	-0.01814	0.00201
2.58000	0.00116	-0.00007	0.00089	-0.00053	-3.69820	-89.73000	-0.00099	-0.03315	-0.02693	-0.02329	-0.01814	0.00201
2.58200	0.00116	-0.00007	0.00089	-0.00053	-3.69820	-89.73000	-0.00099	-0.03315	-0.02693	-0.02329	-0.01814	0.00201
2.58400	-0.00002	0.00143	0.00053	0.00004	-3.87860	-89.73000	-0.02453	-0.03127	-0.02770	-0.02551	-0.00370	0.00392
2.58600	-0.00002	0.00143	0.00053	0.00004	-3.78840	-89.73000	-0.02453	-0.03127	-0.02770	-0.02551	-0.00370	0.00392
2.58800	-0.00002	0.00143	0.00053	0.00004	-3.96880	-89.64000	-0.02453	-0.03127	-0.02770	-0.02551	-0.00370	0.00392
2.59000	-0.00002	0.00143	0.00053	0.00004	-4.05900	-89.64000	-0.02453	-0.03127	-0.02770	-0.02551	-0.00370	0.00392
2.59200	0.00178	0.00056	0.00071	-0.00029	-4.14920	-89.64000	-0.04700	-0.03303	-0.01952	-0.02437	0.00308	0.00361
2.59400	0.00178	0.00056	0.00071	-0.00029	-4.05900	-89.64000	-0.04700	-0.03303	-0.01952	-0.02437	0.00308	0.00361
2.59600	0.00178	0.00056	0.00071	-0.00029	-3.96880	-89.73000	-0.04700	-0.03303	-0.01952	-0.02437	0.00308	0.00361
2.59800	0.00178	0.00056	0.00071	-0.00029	-3.96880	-89.73000	-0.04700	-0.03303	-0.01952	-0.02437	0.00308	0.00361
2.60000	0.00054	0.00108	0.00042	-0.00027	-4.05900	-89.73000	-0.07316	-0.02429	0.00271	-0.02397	0.00561	0.00407
2.60200	0.00054	0.00108	0.00042	-0.00027	-3.96880	-89.82000	-0.07316	-0.02429	0.00271	-0.02397	0.00561	0.00407
2.60400	0.00054	0.00108	0.00042	-0.00027	-3.96880	-89.82000	-0.07316	-0.02429	0.00271	-0.02397	0.00561	0.00407
2.60600	0.00054	0.00108	0.00042	-0.00027	-3.96880	-89.73000	-0.07316	-0.02429	0.00271	-0.02397	0.00561	0.00407
2.60800	0.00060	0.00072	0.00039	0.00004	-3.87860	-89.73000	-0.07316	-0.02429	0.00271	-0.02397	0.00561	0.00407
2.61000	-0.00004	-0.00016	0.00039	0.00007	-3.87860	-89.73000	-0.04116	0.00540	0.01049	-0.02085	0.00182	0.00506
2.61200	-0.00004	-0.00016	0.00039	0.00007	-3.87860	-89.73000	-0.04116	0.00540	0.01049	-0.02085	0.00182	0.00506
2.61400	-0.00004	-0.00016	0.00039	0.00007	-3.87860	-89.82000	-0.04116	0.00540	0.01049	-0.02085	0.00182	0.00506
2.61600	-0.00004	-0.00016	0.00039	0.00007	-3.87860	-89.73000	-0.04116	0.00540	0.01049	-0.02085	0.00182	0.00506
2.61800	0.00032	0.00176	0.00037	0.00005	-3.87860	-89.73000	-0.04863	-0.01201	-0.00444	-0.02027	-0.00438	0.00321
2.62000	0.00032	0.00176	0.00037	0.00005	-3.87860	-89.82000	-0.04863	-0.01201	-0.00444	-0.02027	-0.00438	0.00321
2.62200	0.00032	0.00176	0.00037	0.00005	-3.87860	-89.82000	-0.04863	-0.01201	-0.00444	-0.02027	-0.00438	0.00321
2.62400	0.00032	0.00176	0.00037	0.00005	-3.96880	-89.91000	-0.04863	-0.01201	-0.00444	-0.02027	-0.00438	0.00321
2.62600	0.00162	0.00069	0.00047	-0.00004	-3.87860	-89.91000	-0.04863	-0.01201	-0.00444	-0.02027	-0.00438	0.00321
2.62800	0.00051	0.00140	0.00024	0.00025	-3.87860	-89.82000	-0.04061	0.00602	-0.02653	-0.01799	-0.00015	-0.00336
2.63000	0.00051	0.00140	0.00024	0.00025	-3.96880	-89.82000	-0.04061	0.00602	-0.02653	-0.01799	-0.00015	-0.00336
2.63200	0.00051	0.00140	0.00024	0.00025	-3.87860	-89.82000	-0.04061	0.00602	-0.02653	-0.01799	-0.00015	-0.00336
2.63400	0.00051	0.00140	0.00024	0.00025	-3.78840	-89.82000	-0.04061	0.00602	-0.02653	-0.01799	-0.00015	-0.00336
2.63600	0.00021	0.00133	0.00027	-0.00019	-3.78840	-89.82000	-0.02638	-0.01790	-0.03242	-0.01903	-0.00404	-0.00429
2.63800	0.00021	0.00133	0.00027	-0.00019	-3.78840	-89.91000	-0.02638	-0.01790	-0.03242	-0.01903	-0.00404	-0.00429
2.64000	0.00021	0.00133	0.00027	-0.00019	-3.78840	-89.91000	-0.02638	-0.01790	-0.03242	-0.01903	-0.00404	-0.00429
2.64200	0.00021	0.00133	0.00027	-0.00019	-3.69820	-89.91000	-0.02638	-0.01790	-0.03242	-0.01903	-0.00404	-0.00429
2.64400	0.00057	0.00082	0.00037	-0.00003	-3.78840	-89.91000	-0.02885	-0.05148	-0.04981	-0.01984	-0.00111	-0.00534
2.64600	0.00057	0.00082	0.00037	-0.00003	-3.69820	-90.00000	-0.02885	-0.05148	-0.04981	-0.01984	-0.00111	-0.00534
2.64800	0.00057	0.00082	0.00037	-0.00003	-3.78840	-89.82000	-0.02885	-0.05148	-0.04981	-0.01984	-0.00111	-0.00534
2.65000	0.00057	0.00082	0.00037	-0.00003	0.00000	0.00000	-0.02885	-0.05148	-0.04981	-0.01984	-0.00111	-0.00534
2.65200	0.00166	0.00129	0.00026	0.00015	0.00000	0.00000	-0.02774	-0.04577	-0.05691	-0.02070	-0.00398	-0.00302
2.65400	0.00166	0.00129	0.00026	0.00015	-4.05900	-89.82000	-0.02774	-0.04577	-0.05691	-0.02070	-0.00398	-0.00302
2.65600	0.00166	0.00129	0.00026	0.00015	-4.14920	-89.73000	-0.02774	-0.04577	-0.05691	-0.02070	-0.00398	-0.00302
2.65800	0.00166	0.00129	0.00026	0.00015	-4.14920	-89.64000	-0.02774	-0.04577	-0.05691	-0.02070	-0.00398	-0.00302
2.66000	0.00099	0.00044	0.00021	-0.00006	-4.05900	-89.64000	-0.03018	-0.05627	-0.05836	-0.02005	-0.00395	-0.00336
2.66200	0.00099	0.00044	0.00021	-0.00006	-3.96880	-89.73000	-0.03018	-0.05627	-0.05836	-0.02005	-0.00395	-0.00336
2.66400	0.00099	0.00044	0.00021	-0.00006	-3.87860	-89.73000	-0.03018	-0.05627	-0.05836	-0.02005	-0.00395	-0.00336
2.66600	0.00099	0.00044	0.00021	-0.00006	-3.69820	-89.64000	-0.03018	-0.05627	-0.05836	-0.02005	-0.00395	-0.00336
2.66800	0.00043	0.00135	0.00037	-0.00018	-3.78840	-89.64000	-0.01407	-0.03577	-0.06616	-0.01731	-0.00099	-0.00228
2.67000	0.00043	0.00135	0.00037	-0.00018	-3.78840	-89.73000	-0.01407	-0.03577	-0.06616	-0.01731	-0.00099	-0.00228
2.67200	0.00043	0.00135	0.00037	-0.00018	-3.78840	-89.73000	-0.01407	-0.03577	-0.06616	-0.01731	-0.00099	-0.00228
2.67400	0.00043	0.00135	0.00037	-0.00018	-3.87860	-89.82000	-0.01407	-0.03577	-0.06616	-0.01731	-0.00099	-0.00228
2.67600	0.00024	0.00106	0.00046	-0.00017	-3.96880	-89.73000	-0.02793	-0.00849	-0.05179	-0.01811	-0.00330	-0.00102
2.67800	0.00024	0.00106	0.00046	-0.00017	-3.87860	-89.73000	-0.02793	-0.00849	-0.05179	-0.01811	-0.00330	-0.00102
2.68000	0.00024	0.00106	0.00046	-0.00017	-3.87860	-89.73000	-0.02793	-0.00849	-0.05179	-0.01811	-0.00330	-0.00102
2.68200	0.00024	0.00106	0.00046	-0.00017	-3.69820	-89.73000	-0.02793	-0.00849	-0.05179	-0.01811	-0.00330	-0.00102
2.68400	0.00145	0.00128	0.00033	-0.00020	-3.69820	-89.73000	-0.00617	0.01395	-0.05389	-0.01555	-0.00765	0.00423
2.68600	0.00145	0.00128	0.00033	-0.00020	-3.78840	-89.82000	-0.00617	0.01395	-0.05389	-0.01555	-0.00765	0.00423
2.68800	0.00145	0.00128	0.00033	-0.00020	-3.87860	-89.73000	-0.00617	0.01395	-0.05389	-0.01555	-0.00765	0.00423
2.69000	0.00145	0.00128	0.00033	-0.00020	-3.87860	-89.82000	-0.00617	0.01395	-0.05389	-0.01555	-0.00765	0.00423
2.69200	0.00035	0.00129	0.00040	-0.00004	-3.87860	-89.82000	0.01648	0.01281	-0.04991	-0.01752	-0.01172	0.00457
2.69400	0.00035	0.00129	0.00040	-0.00004	-3.87860	-89.82000	0.01648	0.01281	-0.04991	-0.01752	-0.01172	0.00457
2.69600	0.00035	0.00129	0.00040	-0.00004	-3.87860	-89.73000	0.01648	0.01281	-0.04991	-0.01752	-0.01172	0.00457
2.69800	0.00035	0.00129	0.00040	-0.00004	-3.87860	-89.73000	0.01648	0.01281	-0.04991	-0.01752	-0.01172	0.00457
2.70000	0.00059	0.00122	0.00053	0.00007	-3.87860	-89.73000	-0.00071	0.01827	-0.06419	-0.01595	-0.01434	0.00454
2.70200	0.00059	0.00122	0.00053	0.00007	-3.96880	-89.64000	-0.00071	0.01827	-0.06419	-0.01595	-0.01434	0.00454
2.70400	0.00059	0.00122	0.00053	0.00007	-3.96880	-89.55000	-0.00071	0.01827	-0.06419	-0.01595	-0.01434	0.00454
2.70600	0.00059	0.00122	0.00053	0.00007	-3.87860	-89.73000	-0.00071	0.01827	-0.06419	-0.01595	-0.01434	0.00454
2.70800	0.00013	0.00100	0.00094	-0.00002	-3.87860	-89.73000	0.01753	0.01911	-0.07924	-0.01635	-0.01052	0.00238
2.71000	0.00013	0.00100	0.00094	-0.00002	-3.78840	-89.73000	0.01753	0.01911	-0.07924	-0.01635	-0.01052	0.00238
2.71200	0.00013	0.00100	0.00094	-0.00002	-3.78840	-89.64000	0.01753	0.01911	-0.07924	-0.01635	-0.01052	0.00238
2.71400	0.00013	0.00100	0.00094	-0.00002	-3.78840	-89.73000	0.01753	0.01911	-0.07924	-0.01635	-0.01052	0.00238
2.71600	0.00212	0.00105	0.00035	-0.00022	-3.78840	-89.73000	0.01136	-0.00444	-0.06477	-0.01314	-0.01311	-0.00204
2.71800	0.00212	0.00105	0.00035	-0.00022	-3.78840	-89.82000	0.01136	-0.00444	-0.06477	-0.01314	-0.01311	-0.00204
2.72000	0.00212	0.00105	0.00035	-0.00022	-3.87860	-89.82000	0.01136	-0.00444	-0.06477	-0.01314	-0.01311	-0.00204
2.72200	0.00212	0.00105	0.00035	-0.00022	-3.78840	-89.82000	0.01136	-0.00444	-0.06477	-0.01314	-0.01311	-0.00204
2.72400	0.00066	0.00113	0.00046	-0.00020	-3.87860	-89.82000	0.00299	-0.00873	-0.05068	-0.01370	-0.01012	-0.00062
2.72600	0.00066	0.00113	0.00046	-0.00020	-3.96880	-89.82000	0.00299	-0.00873	-0.05068	-0.01370	-0.01012	-0.00062
2.72800	0.00066	0.00113	0.00046	-0.00020	-3.96880	-89.82000	0.00299	-0.00873	-0.05068	-0.01370	-0.01012	-0.00062
2.73000	0.00066	0.00113	0.00046	-0.00020	-3.96880	-89.82000	0.00299	-0.00873	-0.05068	-0.01370	-0.01012	-0.00062
2.73200	0.00033	0.00155	0.00040	-0.00001	-3.96880	-89.82000	-0.00978	-0.03216	-0.02828	-0.01666	-0.00460	-0.00265
2.73400	0.00033	0.00155	0.00040	-0.00001	-3.87860	-89.82000	-0.00978	-0.03216	-0.02828	-0.01666	-0.00460	-0.00265
2.73600	0.00033	0.00155	0.00040	-0.00001	-3.78840	-89.82000	-0.00978	-0.03216	-0.02828	-0.01666	-0.00460	-0.00265
2.73800	0.00033	0.00155	0.00040	-0.00001	-3.78840	-89.82000	-0.00978	-0.03216	-0.02828	-0.01666	-0.00460	-0.00265
2.74000	0.00040	0.00157	0.00049	-0.00006	-3.78840	-89.82000	-0.02753	-0.05034	-0.00339	-0.01755	-0.00262	-0.00306
2.74200	0.00040	0.00157	0.00049	-0.00006	-3.69820	-89.82000	-0.02753	-0.05034	-0.00339	-0.01755	-0.00262	-0.00306
2.74400	0.00040	0.00157	0.00049	-0.00006	-3.69820	-89.82000	-0.02753	-0.05034	-0.00339	-0.01755	-0.00262	-0.00306
2.74600	0.00040	0.00157	0.00049	-0.00006	-3.69820	-89.82000	-0.02753	-0.05034	-0.00339	-0.01755	-0.00262	-0.00306
2.74800	0.00207	0.00038	0.00059	-0.00006	-3.87860	-89.82000	-0.02898	-0.00957	-0.00571	-0.01542	0.00333	-0.00352
2.75000	0.00207	0.00038	0.00059	-0.00006	-3.87860	-89.73000	-0.02898	-0.00957	-0.00571	-0.01542	0.00333	-0.00352
2.75200	0.00207	0.00038	0.00059	-0.00006	-3.87860	-89.82000	-0.02898	-0.00957	-0.00571	-0.01542	0.00333	-0.00352
2.75400	0.00207	0.00038	0.00059	-0.00006	-3.96880	-89.82000	-0.02898	-0.00957	-0.00571	-0.01542	0.00333	-0.00352
2.75600	0.00038	0.00137	0.00017	0.00017	-3.96880	-89.73000	-0.03043	-0.00657	-0.00065	-0.01382	-0.00089	-0.00346
2.75800	0.00038	0.00137	0.00017	0.00017	-4.05900	-89.73000	-0.03043	-0.00657	-0.00065	-0.01382	-0.00089	-0.00346
2.76000	0.00038	0.00137	0.00017	0.00017	0.00000	0.00000	-0.03043	-0.00657	-0.00065	-0.01382	-0.00089	-0.00346
2.76200	0.00038	0.00137	0.00017	0.00017	-3.96880	-89.82000	-0.03043	-0.00657	-0.00065	-0.01382	-0.00089	-0.00346
2.76400	0.00060	0.00085	0.00031	0.00009	-3.96880	-89.82000	-0.02561	0.01836	0.01320	-0.01098	-0.00503	-0.00105
2.76600	0.00060	0.00085	0.00031	0.00009	-3.87860	-89.82000	-0.02561	0.01836	0.01320	-0.01098	-0.00503	-0.00105
2.76800	0.00060	0.00085	0.00031	0.00009	-3.87860	-89.64000	-0.02561	0.01836	0.01320	-0.01098	-0.00503	-0.00105
2.77000	0.00060	0.00085	0.00031	0.00009	-3.87860	-89.73000	-0.02561	0.01836	0.01320	-0.01098	-0.00503	-0.00105
2.77200	0.00049	0.00130	0.00133	0.00007	-3.96880	-89.82000	-0.00626	0.01877	-0.01110	-0.01314	-0.00605	0.00167
2.77400	0.00049	0.00130	0.00133	0.00007	-3.87860	-89.82000	-0.00626	0.01877	-0.01110	-0.01314	-0.00605	0.00167
2.77600	0.00049	0.00130	0.00133	0.00007	-3.87860	-89.91000	-0.00626	0.01877	-0.01110	-0.01314	-0.00605	0.00167
2.77800	0.00049	0.00130	0.00133	0.00007	-3.87860	-89.91000	-0.00626	0.01877	-0.01110	-0.01314	-0.00605	0.00167
2.78000	0.00199	0.00046	0.00034	-0.00011	-3.87860	-89.82000	-0.01561	-0.00105	-0.04044	-0.01280	-0.00330	0.00352
2.78200	0.00199	0.00046	0.00034	-0.00011	-3.87860	-89.55000	-0.01561	-0.00105	-0.04044	-0.01280	-0.00330	0.00352
2.78400	0.00199	0.00046	0.00034	-0.00011	-3.87860	-89.55000	-0.01561	-0.00105	-0.04044	-0.01280	-0.00330	0.00352
2.78600	0.00199	0.00046	0.00034	-0.00011	-3.87860	-89.64000	-0.01561	-0.00105	-0.04044	-0.01280	-0.00330	0.00352
2.78800	0.00067	0.00173	0.00027	0.00004	-3.96880	-89.64000	-0.00247	-0.00843	-0.05568	-0.01385	-0.00182	0.00420
2.79000	0.00067	0.00173	0.00027	0.00004	-3.87860	-89.64000	-0.00247	-0.00843	-0.05568	-0.01385	-0.00182	0.00420
2.79200	0.00067	0.00173	0.00027	0.00004	-3.78840	-89.64000	-0.00247	-0.00843	-0.05568	-0.01385	-0.00182	0.00420
2.79400	0.00067	0.00173	0.00027	0.00004	-3.87860	-89.64000	-0.00247	-0.00843	-0.05568	-0.01385	-0.00182	0.00420
2.79600	0.00035	0.00059	0.00046	-0.00029	-3.69820	-89.64000	-0.02083	-0.02818	-0.04328	-0.02085	-0.00262	0.00451
2.79800	0.00035	0.00059	0.00046	-0.00029	-3.78840	-89.64000	-0.02083	-0.02818	-0.04328	-0.02085	-0.00262	0.00451
2.80000	0.00035	0.00059	0.00046	-0.00029	-3.78840	-89.64000	-0.02083	-0.02818	-0.04328	-0.02085	-0.00262	0.00451
2.80200	0.00035	0.00059	0.00046	-0.00029	-3.78840	-89.64000	-0.02083	-0.02818	-0.04328	-0.02085	-0.00262	0.00451
2.80400	0.00055	0.00182	0.00016	-0.00013	-3.87860	-89.64000	-0.03728	-0.01630	-0.04803	-0.01259	0.00006	0.00235
2.80600	0.00055	0.00182	0.00016	-0.00013	-3.87860	-89.64000	-0.03728	-0.01630	-0.04803	-0.01259	0.00006	0.00235
2.80800	0.00055	0.00182	0.00016	-0.00013	-3.87860	-89.73000	-0.03728	-0.01630	-0.04803	-0.01259	0.00006	0.00235
2.81000	0.00055	0.00182	0.00016	-0.00013	-3.87860	-89.64000	-0.03728	-0.01630	-0.04803	-0.01259	0.00006	0.00235
2.81200	0.00219	0.00044	0.00019	-0.00011	-3.96880	-89.73000	-0.03876	0.00142	-0.03378	-0.01145	0.00456	0.00182
2.81400	0.00219	0.00044	0.00019	-0.00011	-3.96880	-89.64000	-0.03876	0.00142	-0.03378	-0.01145	0.00456	0.00182
2.81600	0.00219	0.00044	0.00019	-0.00011	-3.87860	-89.64000	-0.03876	0.00142	-0.03378	-0.01145	0.00456	0.00182
2.81800	0.00219	0.00044	0.00019	-0.00011	-3.87860	-89.73000	-0.03876	0.00142	-0.03378	-0.01145	0.00456	0.00182
2.82000	0.00038	0.00184	0.00064	-0.00031	-3.87860	-89.82000	-0.05854	-0.00799	-0.02819	-0.01200	0.00805	-0.00102
2.82200	0.00038	0.00184	0.00064	-0.00031	-3.87860	-89.73000	-0.05854	-0.00799	-0.02819	-0.01200	0.00805	-0.00102
2.82400	0.00038	0.00184	0.00064	-0.00031	-3.96880	-89.73000	-0.05854	-0.00799	-0.02819	-0.01200	0.00805	-0.00102
2.82600	0.00038	0.00184	0.00064	-0.00031	0.00000	0.00000	-0.05854	-0.00799	-0.02819	-0.01200	0.00805	-0.00102
2.82800	0.00060	0.00055	0.00048	-0.00006	-3.96880	-89.82000	-0.03916	-0.00963	-0.05025	-0.01567	0.00654	-0.00213
2.83000	0.00060	0.00055	0.00048	-0.00006	-3.96880	-89.91000	-0.03916	-0.00963	-0.05025	-0.01567	0.00654	-0.00213
2.83200	0.00060	0.00055	0.00048	-0.00006	-3.87860	-89.91000	-0.03916	-0.00963	-0.05025	-0.01567	0.00654	-0.00213
2.83400	0.00060	0.00055	0.00048	-0.00006	-3.87860	-89.91000	-0.03916	-0.00963	-0.05025	-0.01567	0.00654	-0.00213
2.83600	0.00037	0.00185	0.00044	-0.00007	-3.78840	-89.91000	-0.05200	-0.02574	-0.05783	-0.01660	0.00022	-0.00441
2.83800	0.00391	0.00046	0.00082	-0.00022	-3.87860	-89.91000	-0.05200	-0.02574	-0.05783	-0.01660	0.00022	-0.00441
2.84000	0.00391	0.00046	0.00082	-0.00022	-3.78840	-89.73000	-0.05200	-0.02574	-0.05783	-0.01660	0.00022	-0.00441
2.84200	0.00391	0.00046	0.00082	-0.00022	-3.87860	-89.82000	-0.05200	-0.02574	-0.05783	-0.01660	0.00022	-0.00441
2.84400	0.00391	0.00046	0.00082	-0.00022	-3.87860	-89.73000	-0.05200	-0.02574	-0.05783	-0.01660	0.00022	-0.00441
2.84600	0.00116	0.00059	0.00038	-0.00015	-3.87860	-89.73000	-0.02527	0.01173	-0.06518	-0.01472	-0.00167	0.00133
2.84800	0.00116	0.00059	0.00038	-0.00015	-3.78840	-89.73000	-0.02527	0.01173	-0.06518	-0.01472	-0.00167	0.00133
2.85000	0.00116	0.00059	0.00038	-0.00015	-3.87860	-89.82000	-0.02527	0.01173	-0.06518	-0.01472	-0.00167	0.00133
2.85200	0.00116	0.00059	0.00038	-0.00015	-3.78840	-89.73000	-0.02527	0.01173	-0.06518	-0.01472	-0.00167	0.00133
2.85400	0.00054	0.00177	0.00043	-0.00019	-3.78840	-89.64000	0.00957	0.01299	-0.07273	-0.01293	-0.00870	-0.00210
2.85600	0.00054	0.00177	0.00043	-0.00019	-3.87860	-89.64000	0.00957	0.01299	-0.07273	-0.01293	-0.00870	-0.00210
2.85800	0.00054	0.00177	0.00043	-0.00019	-3.69820	-89.64000	0.00957	0.01299	-0.07273	-0.01293	-0.00870	-0.00210
2.86000	0.00054	0.00177	0.00043	-0.00019	-3.60800	-89.64000	0.00957	0.01299	-0.07273	-0.01293	-0.00870	-0.00210
2.86200	0.00055	0.00055	0.00050	-0.00022	-3.60800	-89.73000	0.01287	-0.00948	-0.04587	-0.01610	-0.01607	0.00093
2.86400	0.00055	0.00055	0.00050	-0.00022	-3.69820	-89.73000	0.01287	-0.00948	-0.04587	-0.01610	-0.01607	0.00093
2.86600	0.00055	0.00055	0.00050	-0.00022	-3.69820	-89.82000	0.01287	-0.00948	-0.04587	-0.01610	-0.01607	0.00093
2.86800	0.00055	0.00055	0.00050	-0.00022	-3.78840	-89.73000	0.01287	-0.00948	-0.04587	-0.01610	-0.01607	0.00093
2.87000	0.00101	0.00184	0.00016	-0.00007	-3.69820	-89.64000	0.01348	0.00191	-0.06342	-0.01956	-0.01496	0.00188
2.87200	0.00101	0.00184	0.00016	-0.00007	-3.69820	-89.73000	0.01348	0.00191	-0.06342	-0.01956	-0.01496	0.00188
2.87400	0.00101	0.00184	0.00016	-0.00007	-3.78840	-89.73000	0.01348	0.00191	-0.06342	-0.01956	-0.01496	0.00188
2.87600	0.00101	0.00184	0.00016	-0.00007	-3.69820	-89.73000	0.01348	0.00191	-0.06342	-0.01956	-0.01496	0.00188
2.87800	0.00118	0.00049	0.00038	0.00001	-3.78840	-89.73000	0.01339	-0.01265	-0.04426	-0.01774	-0.01539	0.00364
2.88000	0.00118	0.00049	0.00038	0.00001	-3.87860	-89.82000	0.01339	-0.01265	-0.04426	-0.01774	-0.01539	0.00364
2.88200	0.00118	0.00049	0.00038	0.00001	-3.96880	-89.82000	0.01339	-0.01265	-0.04426	-0.01774	-0.01539	0.00364
2.88400	0.00118	0.00049	0.00038	0.00001	-3.87860	-89.82000	0.01339	-0.01265	-0.04426	-0.01774	-0.01539	0.00364
2.88600	0.00035	0.00145	0.00032	-0.00021	-3.87860	-89.82000	0.01855	-0.01753	-0.01687	-0.01826	-0.00605	0.00346
2.88800	0.00035	0.00145	0.00032	-0.00021	-3.87860	-89.82000	0.01855	-0.01753	-0.01687	-0.01826	-0.00605	0.00346
2.89000	0.00035	0.00145	0.00032	-0.00021	-3.87860	-89.82000	0.01855	-0.01753	-0.01687	-0.01826	-0.00605	0.00346
2.89200	0.00035	0.00145	0.00032	-0.00021	-3.78840	-89.82000	0.01855	-0.01753	-0.01687	-0.01826	-0.00605	0.00346
2.89400	0.00044	0.00050	0.00049	-0.00008	-3.87860	-89.82000	-0.01099	-0.01441	-0.00709	-0.02030	-0.00746	0.00367
2.89600	0.00044	0.00050	0.00049	-0.00008	-3.87860	-89.73000	-0.01099	-0.01441	-0.00709	-0.02030	-0.00746	0.00367
2.89800	0.00044	0.00050	0.00049	-0.00008	-3.78840	-89.73000	-0.01099	-0.01441	-0.00709	-0.02030	-0.00746	0.00367
2.90000	0.00044	0.00050	0.00049	-0.00008	-3.69820	-89.73000	-0.01099	-0.01441	-0.00709	-0.02030	-0.00746	0.00367
2.90200	0.00129	0.00133	0.00047	-0.00022	-3.78840	-89.73000	-0.01432	-0.02713	-0.01289	-0.01940	-0.01030	0.00102
2.90400	0.00129	0.00133	0.00047	-0.00022	-3.87860	-89.73000	-0.01432	-0.02713	-0.01289	-0.01940	-0.01030	0.00102
2.90600	0.00129	0.00133	0.00047	-0.00022	0.00000	0.00000	-0.01432	-0.02713	-0.01289	-0.01940	-0.01030	0.00102
2.90800	0.00129	0.00133	0.00047	-0.00022	-3.87860	-89.82000	-0.01432	-0.02713	-0.01289	-0.01940	-0.01030	0.00102
2.91000	0.00108	0.00141	0.00039	-0.00020	-3.87860	-89.82000	0.00006	-0.03710	-0.02005	-0.01934	-0.00725	-0.00136
2.91200	0.00108	0.00141	0.00039	-0.00020	-3.96880	-89.73000	0.00006	-0.03710	-0.02005	-0.01934	-0.00725	-0.00136
2.91400	0.00108	0.00141	0.00039	-0.00020	-3.96880	-89.73000	0.00006	-0.03710	-0.02005	-0.01934	-0.00725	-0.00136
2.91600	0.00108	0.00141	0.00039	-0.00020	-3.87860	-89.73000	0.00006	-0.03710	-0.02005	-0.01934	-0.00725	-0.00136
2.91800	0.00057	0.00132	0.00040	-0.00015	-3.87860	-89.82000	-0.02012	-0.04803	-0.02795	-0.02329	-0.00561	-0.00272
2.92000	0.00057	0.00132	0.00040	-0.00015	-3.96880	-89.82000	-0.02012	-0.04803	-0.02795	-0.02329	-0.00561	-0.00272
2.92200	0.00057	0.00132	0.00040	-0.00015	-3.96880	-89.82000	-0.02012	-0.04803	-0.02795	-0.02329	-0.00561	-0.00272
2.92400	0.00057	0.00132	0.00040	-0.00015	-3.87860	-89.82000	-0.02012	-0.04803	-0.02795	-0.02329	-0.00561	-0.00272
2.92600	-0.00013	0.00123	0.00034	-0.00020	-3.78840	-89.64000	-0.01552	-0.05281	-0.03704	-0.02517	-0.00851	-0.00253
2.92800	-0.00013	0.00123	0.00034	-0.00020	-3.87860	-89.82000	-0.01552	-0.05281	-0.03704	-0.02517	-0.00851	-0.00253
2.93000	-0.00013	0.00123	0.00034	-0.00020	-3.87860	-89.82000	-0.01552	-0.05281	-0.03704	-0.02517	-0.00851	-0.00253
2.93200	-0.00013	0.00123	0.00034	-0.00020	-3.87860	-89.82000	-0.01552	-0.05281	-0.03704	-0.02517	-0.00851	-0.00253
2.93400	0.00188	0.00119	0.00050	-0.00017	-3.87860	-89.82000	-0.02179	-0.05046	-0.01169	-0.02539	-0.00373	-0.00426
2.93600	0.00188	0.00119	0.00050	-0.00017	-3.96880	-89.82000	-0.02179	-0.05046	-0.01169	-0.02539	-0.00373	-0.00426
2.93800	0.00188	0.00119	0.00050	-0.00017	-3.96880	-89.64000	-0.02179	-0.05046	-0.01169	-0.02539	-0.00373	-0.00426
2.94000	0.00188	0.00119	0.00050	-0.00017	-3.96880	-89.73000	-0.02179	-0.05046	-0.01169	-0.02539	-0.00373	-0.00426
2.94200	0.00054	0.00115	0.00049	0.00013	-3.96880	-89.73000	-0.04835	-0.03336	-0.00737	-0.02295	-0.00200	-0.00290
2.94400	0.00054	0.00115	0.00049	0.00013	-4.05900	-89.73000	-0.04835	-0.03336	-0.00737	-0.02295	-0.00200	-0.00290
2.94600	0.00054	0.00115	0.00049	0.00013	-3.96880	-89.73000	-0.04835	-0.03336	-0.00737	-0.02295	-0.00200	-0.00290
2.94800	0.00054	0.00115	0.00049	0.00013	-3.96880	-89.82000	-0.04835	-0.03336	-0.00737	-0.02295	-0.00200	-0.00290
2.95000	0.00082	0.00111	0.00047	0.00022	-4.05900	-89.82000	-0.04666	-0.01895	-0.02409	-0.02486	0.00259	-0.00133
2.95200	0.00082	0.00111	0.00047	0.00022	-3.87860	-89.82000	-0.04666	-0.01895	-0.02409	-0.02486	0.00259	-0.00133
2.95400	0.00082	0.00111	0.00047	0.00022	-3.87860	-89.82000	-0.04666	-0.01895	-0.02409	-0.02486	0.00259	-0.00133
2.95600	0.00082	0.00111	0.00047	0.00022	-3.96880	-89.73000	-0.04666	-0.01895	-0.02409	-0.02486	0.00259	-0.00133
2.95800	0.00052	0.00119	0.00029	0.00004	-3.96880	-89.73000	-0.05591	-0.02611	-0.01184	-0.02579	0.00228	0.00012
2.96000	0.00052	0.00119	0.00029	0.00004	-3.78840	-89.82000	-0.05591	-0.02611	-0.01184	-0.02579	0.00228	0.00012
2.96200	0.00052	0.00119	0.00029	0.00004	-3.78840	-89.82000	-0.05591	-0.02611	-0.01184	-0.02579	0.00228	0.00012
2.96400	0.00052	0.00119	0.00029	0.00004	-3.87860	-89.82000	-0.05591	-0.02611	-0.01184	-0.02579	0.00228	0.00012
2.96600	0.00190	0.00118	0.00034	-0.00018	-3.87860	-89.82000	-0.06085	-0.02176	-0.02060	-0.02369	0.00296	0.00441
2.96800	0.00190	0.00118	0.00034	-0.00018	-3.96880	-89.73000	-0.06085	-0.02176	-0.02060	-0.02369	0.00296	0.00441
2.97000	0.00190	0.00118	0.00034	-0.00018	-3.87860	-89.73000	-0.06085	-0.02176	-0.02060	-0.02369	0.00296	0.00441
2.97200	0.00190	0.00118	0.00034	-0.00018	0.00000	0.00000	-0.06085	-0.02176	-0.02060	-0.02369	0.00296	0.00441
2.97400	0.00051	0.00116	0.00042	0.00010	-3.96880	-89.64000	-0.05832	-0.01892	-0.05157	-0.02554	0.00472	0.00339
2.97600	0.00051	0.00116	0.00042	0.00010	-3.96880	-89.64000	-0.05832	-0.01892	-0.05157	-0.02554	0.00472	0.00339
2.97800	0.00051	0.00116	0.00042	0.00010	-3.87860	-89.73000	-0.05832	-0.01892	-0.05157	-0.02554	0.00472	0.00339
2.98000	0.00051	0.00116	0.00042	0.00010	-3.78840	-89.82000	-0.05832	-0.01892	-0.05157	-0.02554	0.00472	0.00339
2.98200	0.00062	0.00048	0.00025	-0.00020	-3.87860	-89.82000	-0.06909	-0.03858	-0.05605	-0.02891	0.00589	0.00380
2.98400	0.00062	0.00048	0.00025	-0.00020	-3.96880	-89.73000	-0.06909	-0.03858	-0.05605	-0.02891	0.00589	0.00380
2.98600	0.00062	0.00048	0.00025	-0.00020	-4.05900	-89.73000	-0.06909	-0.03858	-0.05605	-0.02891	0.00589	0.00380
2.98800	0.00062	0.00048	0.00025	-0.00020	-4.05900	-89.73000	-0.06909	-0.03858	-0.05605	-0.02891	0.00589	0.00380
2.99000	0.00013	0.00137	0.00018	-0.00000	-4.05900	-89.73000	-0.04808	-0.03725	-0.07455	-0.02696	0.00512	0.00389
2.99200	0.00013	0.00137	0.00018	-0.00000	-4.05900	-89.73000	-0.04808	-0.03725	-0.07455	-0.02696	0.00512	0.00389
2.99400	0.00013	0.00137	0.00018	-0.00000	-3.96880	-89.82000	-0.04808	-0.03725	-0.07455	-0.02696	0.00512	0.00389
2.99600	0.00013	0.00137	0.00018	-0.00000	-3.96880	-89.91000	-0.04808	-0.03725	-0.07455	-0.02696	0.00512	0.00389
2.99800	0.00193	0.00073	0.00031	-0.00031	-3.96880	-89.82000	-0.04487	-0.03901	-0.10012	-0.02675	-0.00130	0.00188
3.00000	0.00193	0.00073	0.00031	-0.00031	-4.05900	-89.82000	-0.04487	-0.03901	-0.10012	-0.02675	-0.00130	0.00188
3.00200	0.00193	0.00073	0.00031	-0.00031	-3.87860	-89.73000	-0.04487	-0.03901	-0.10012	-0.02675	-0.00130	0.00188
3.00400	0.00193	0.00073	0.00031	-0.00031	-3.87860	-89.73000	-0.04487	-0.03901	-0.10012	-0.02675	-0.00130	0.00188
3.00600	0.00079	0.00140	0.00024	-0.00019	-3.87860	-89.73000	-0.04474	-0.04954	-0.08186	-0.03029	0.00080	-0.00398
3.00800	0.00079	0.00140	0.00024	-0.00019	-3.87860	-89.64000	-0.04474	-0.04954	-0.08186	-0.03029	0.00080	-0.00398
3.01000	0.00079	0.00140	0.00024	-0.00019	-3.87860	-89.64000	-0.04474	-0.04954	-0.08186	-0.03029	0.00080	-0.00398
3.01200	0.00079	0.00140	0.00024	-0.00019	-3.87860	-89.64000	-0.04474	-0.04954	-0.08186	-0.03029	0.00080	-0.00398
3.01400	0.00033	0.00089	0.00045	-0.00015	-3.78840	-89.64000	-0.02052	-0.04512	-0.05617	-0.02817	-0.00558	-0.00173
3.01600	0.00033	0.00089	0.00045	-0.00015	-3.78840	-89.73000	-0.02052	-0.04512	-0.05617	-0.02817	-0.00558	-0.00173
3.01800	0.00033	0.00089	0.00045	-0.00015	-3.78840	-89.73000	-0.02052	-0.04512	-0.05617	-0.02817	-0.00558	-0.00173
3.02000	0.00033	0.00089	0.00045	-0.00015	-3.96880	-89.82000	-0.02052	-0.04512	-0.05617	-0.02817	-0.00558	-0.00173
3.02200	0.00055	0.00187	0.00039	-0.00034	-3.96880	-89.82000	-0.01926	-0.05130	-0.05657	-0.02915	-0.00589	-0.00284
3.02400	0.00055	0.00187	0.00039	-0.00034	-3.96880	-89.91000	-0.01926	-0.05130	-0.05657	-0.02915	-0.00589	-0.00284
3.02600	0.00055	0.00187	0.00039	-0.00034	-3.87860	-89.82000	-0.01926	-0.05130	-0.05657	-0.02915	-0.00589	-0.00284
3.02800	0.00055	0.00187	0.00039	-0.00034	-3.87860	-89.73000	-0.01926	-0.05130	-0.05657	-0.02915	-0.00589	-0.00284
3.03000	0.00222	0.00051	0.00036	-0.00023	-3.96880	-89.73000	-0.00503	-0.05762	-0.05281	-0.02875	-0.00876	-0.00358
3.03200	0.00222	0.00051	0.00036	-0.00023	-3.87860	-89.73000	-0.00503	-0.05762	-0.05281	-0.02875	-0.00876	-0.00358
3.03400	0.00222	0.00051	0.00036	-0.00023	-3.96880	-89.73000	-0.00503	-0.05762	-0.05281	-0.02875	-0.00876	-0.00358
3.03600	0.00222	0.00051	0.00036	-0.00023	-3.87860	-89.73000	-0.00503	-0.05762	-0.05281	-0.02875	-0.00876	-0.00358
3.03800	0.00067	0.00156	0.00040	-0.00014	-3.87860	-89.82000	-0.01274	-0.05784	-0.04932	-0.02906	-0.01348	-0.00253
3.04000	0.00067	0.00156	0.00040	-0.00014	-3.96880	-89.73000	-0.01274	-0.05784	-0.04932	-0.02906	-0.01348	-0.00253
3.04200	0.00067	0.00156	0.00040	-0.00014	-3.78840	-89.82000	-0.01274	-0.05784	-0.04932	-0.02906	-0.01348	-0.00253
3.04400	0.00067	0.00156	0.00040	-0.00014	-3.69820	-89.82000	-0.01274	-0.05784	-0.04932	-0.02906	-0.01348	-0.00253
3.04600	0.00038	0.00060	0.00045	-0.00008	-3.69820	-89.82000	-0.00611	-0.05105	-0.05799	-0.02946	-0.00549	-0.00077
3.04800	0.00052	0.00071	0.00033	-0.00017	-3.78840	-89.82000	-0.00611	-0.05105	-0.05799	-0.02946	-0.00549	-0.00077
3.05000	0.00052	0.00071	0.00033	-0.00017	-3.69820	-89.82000	-0.00611	-0.05105	-0.05799	-0.02946	-0.00549	-0.00077
3.05200	0.00052	0.00071	0.00033	-0.00017	-3.78840	-89.82000	-0.00611	-0.05105	-0.05799	-0.02946	-0.00549	-0.00077
3.05400	0.00052	0.00071	0.00033	-0.00017	-3.78840	-89.73000	-0.00611	-0.05105	-0.05799	-0.02946	-0.00549	-0.00077
3.05600	0.00071	0.00195	0.00035	-0.00005	-3.78840	-89.82000	-0.01157	-0.03849	-0.03822	-0.02564	-0.00762	0.00361
3.05800	0.00071	0.00195	0.00035	-0.00005	-3.87860	-89.82000	-0.01157	-0.03849	-0.03822	-0.02564	-0.00762	0.00361
3.06000	0.00071	0.00195	0.00035	-0.00005	-3.96880	-89.91000	-0.01157	-0.03849	-0.03822	-0.02564	-0.00762	0.00361
3.06200	0.00071	0.00195	0.00035	-0.00005	-3.96880	-89.82000	-0.01157	-0.03849	-0.03822	-0.02564	-0.00762	0.00361
3.06400	0.00137	0.00054	0.00046	-0.00002	-3.87860	-89.73000	-0.01157	-0.03849	-0.03822	-0.02564	-0.00762	0.00361
3.06600	-0.00116	0.00271	0.00006	0.00016	-3.78840	-89.73000	-0.00805	-0.03330	-0.02101	-0.02641	-0.01178	0.00410
3.06800	-0.00116	0.00271	0.00006	0.00016	-3.78840	-89.73000	-0.00805	-0.03330	-0.02101	-0.02641	-0.01178	0.00410
3.07000	-0.00116	0.00271	0.00006	0.00016	-3.78840	-89.64000	-0.00805	-0.03330	-0.02101	-0.02641	-0.01178	0.00410
3.07200	-0.00116	0.00271	0.00006	0.00016	-3.78840	-89.64000	-0.00805	-0.03330	-0.02101	-0.02641	-0.01178	0.00410
3.07400	0.00051	0.00124	0.00046	-0.00008	-3.87860	-89.82000	0.01281	-0.04704	-0.03276	-0.02857	-0.01366	0.00321
3.07600	0.00051	0.00124	0.00046	-0.00008	-3.78840	-89.82000	0.01281	-0.04704	-0.03276	-0.02857	-0.01366	0.00321
3.07800	0.00051	0.00124	0.00046	-0.00008	-3.78840	-89.73000	0.01281	-0.04704	-0.03276	-0.02857	-0.01366	0.00321
3.08000	0.00051	0.00124	0.00046	-0.00008	-3.78840	-89.82000	0.01281	-0.04704	-0.03276	-0.02857	-0.01366	0.00321
3.08200	0.00032	0.00089	0.00039	-0.00010	-3.78840	-89.82000	0.00009	-0.03321	-0.02647	-0.02857	-0.01289	0.00475
3.08400	0.00032	0.00089	0.00039	-0.00010	-3.78840	-89.82000	0.00009	-0.03321	-0.02647	-0.02857	-0.01289	0.00475
3.08600	0.00032	0.00089	0.00039	-0.00010	-3.78840	-89.82000	0.00009	-0.03321	-0.02647	-0.02857	-0.01289	0.00475
3.08800	0.00032	0.00089	0.00039	-0.00010	-3.78840	-89.91000	0.00009	-0.03321	-0.02647	-0.02857	-0.01289	0.00475
3.09000	0.00197	0.00132	0.00026	-0.00004	-3.78840	-90.00000	0.01154	-0.00627	-0.03140	-0.02304	-0.01206	0.00330
3.09200	0.00197	0.00132	0.00026	-0.00004	-3.87860	-89.91000	0.01154	-0.00627	-0.03140	-0.02304	-0.01206	0.00330
3.09400	0.00197	0.00132	0.00026	-0.00004	-3.87860	-89.82000	0.01154	-0.00627	-0.03140	-0.02304	-0.01206	0.00330
3.09600	0.00197	0.00132	0.00026	-0.00004	-3.87860	-89.73000	0.01154	-0.00627	-0.03140	-0.02304	-0.01206	0.00330
3.09800	0.00044	0.00061	0.00051	-0.00010	-3.87860	-89.73000	-0.00663	-0.02167	-0.01752	-0.02181	-0.01261	0.00142
3.10000	0.00044	0.00061	0.00051	-0.00010	-3.87860	-89.64000	-0.00663	-0.02167	-0.01752	-0.02181	-0.01261	0.00142
3.10200	0.00044	0.00061	0.00051	-0.00010	-3.87860	-89.82000	-0.00663	-0.02167	-0.01752	-0.02181	-0.01261	0.00142
3.10400	0.00044	0.00061	0.00051	-0.00010	-3.87860	-89.91000	-0.00663	-0.02167	-0.01752	-0.02181	-0.01261	0.00142
3.10600	0.00024	0.00076	0.00065	-0.00008	-3.96880	-89.91000	-0.03289	-0.03577	-0.00907	-0.02033	-0.00290	-0.00089
3.10800	0.00024	0.00076	0.00065	-0.00008	-3.87860	-89.91000	-0.03289	-0.03577	-0.00907	-0.02033	-0.00290	-0.00089
3.11000	0.00024	0.00076	0.00065	-0.00008	-3.87860	-89.91000	-0.03289	-0.03577	-0.00907	-0.02033	-0.00290	-0.00089
3.11200	0.00024	0.00076	0.00065	-0.00008	-3.96880	-90.00000	-0.03289	-0.03577	-0.00907	-0.02033	-0.00290	-0.00089
3.11400	0.00035	0.00104	0.00040	-0.00005	-4.05900	-89.91000	-0.04820	-0.03997	-0.02671	-0.02523	0.00296	-0.00293
3.11600	0.00035	0.00104	0.00040	-0.00005	-4.05900	-89.91000	-0.04820	-0.03997	-0.02671	-0.02523	0.00296	-0.00293
3.11800	0.00035	0.00104	0.00040	-0.00005	-3.96880	-89.82000	-0.04820	-0.03997	-0.02671	-0.02523	0.00296	-0.00293
3.12000	0.00035	0.00104	0.00040	-0.00005	-3.96880	-89.82000	-0.04820	-0.03997	-0.02671	-0.02523	0.00296	-0.00293
3.12200	0.00167	0.00122	0.00027	0.00025	-3.87860	-89.82000	-0.06462	-0.05994	-0.04217	-0.02304	0.00861	-0.00484
3.12400	0.00167	0.00122	0.00027	0.00025	-3.96880	-89.82000	-0.06462	-0.05994	-0.04217	-0.02304	0.00861	-0.00484
3.12600	0.00167	0.00122	0.00027	0.00025	-3.87860	-89.82000	-0.06462	-0.05994	-0.04217	-0.02304	0.00861	-0.00484
3.12800	0.00167	0.00122	0.00027	0.00025	-3.87860	-89.91000	-0.06462	-0.05994	-0.04217	-0.02304	0.00861	-0.00484
3.13000	0.00100	0.00107	0.00042	0.00025	-3.87860	-89.82000	-0.06135	-0.05664	-0.03393	-0.02289	0.00845	-0.00256
3.13200	0.00100	0.00107	0.00042	0.00025	-3.87860	-89.73000	-0.06135	-0.05664	-0.03393	-0.02289	0.00845	-0.00256
3.13400	0.00100	0.00107	0.00042	0.00025	-3.87860	-89.82000	-0.06135	-0.05664	-0.03393	-0.02289	0.00845	-0.00256
3.13600	0.00100	0.00107	0.00042	0.00025	-3.78840	-89.82000	-0.06135	-0.05664	-0.03393	-0.02289	0.00845	-0.00256
3.13800	0.00051	0.00071	0.00062	0.00000	-3.87860	-89.73000	-0.06465	-0.02528	-0.03180	-0.02008	0.00426	-0.00210
3.14000	0.00051	0.00071	0.00062	0.00000	-3.96880	-89.64000	-0.06465	-0.02528	-0.03180	-0.02008	0.00426	-0.00210
3.14200	0.00051	0.00071	0.00062	0.00000	-3.96880	-89.64000	-0.06465	-0.02528	-0.03180	-0.02008	0.00426	-0.00210
3.14400	0.00051	0.00071	0.00062	0.00000	-3.78840	-89.64000	-0.06465	-0.02528	-0.03180	-0.02008	0.00426	-0.00210
3.14600	0.00060	0.00124	0.00043	-0.00009	-3.78840	-89.73000	-0.04018	-0.00164	-0.02418	-0.01765	0.00170	-0.00179
3.14800	0.00060	0.00124	0.00043	-0.00009	-3.78840	-89.64000	-0.04018	-0.00164	-0.02418	-0.01765	0.00170	-0.00179
3.15000	0.00060	0.00124	0.00043	-0.00009	-3.87860	-89.64000	-0.04018	-0.00164	-0.02418	-0.01765	0.00170	-0.00179
3.15200	0.00060	0.00124	0.00043	-0.00009	-3.87860	-89.73000	-0.04018	-0.00164	-0.02418	-0.01765	0.00170	-0.00179
3.15400	0.00187	0.00074	0.00040	0.00013	-3.87860	-89.82000	-0.01163	-0.00401	-0.02702	-0.01672	-0.00490	0.00201
3.15600	0.00187	0.00074	0.00040	0.00013	-3.96880	-89.82000	-0.01163	-0.00401	-0.02702	-0.01672	-0.00490	0.00201
3.15800	0.00187	0.00074	0.00040	0.00013	-3.96880	-89.91000	-0.01163	-0.00401	-0.02702	-0.01672	-0.00490	0.00201
3.16000	0.00187	0.00074	0.00040	0.00013	-3.96880	-89.91000	-0.01163	-0.00401	-0.02702	-0.01672	-0.00490	0.00201
3.16200	0.00048	0.00177	0.00058	-0.00036	-3.87860	-89.82000	-0.01747	-0.00855	-0.03933	-0.01706	-0.00999	0.00447
3.16400	0.00048	0.00177	0.00058	-0.00036	-3.87860	-89.82000	-0.01747	-0.00855	-0.03933	-0.01706	-0.00999	0.00447
3.16600	0.00048	0.00177	0.00058	-0.00036	-3.87860	-89.82000	-0.01747	-0.00855	-0.03933	-0.01706	-0.00999	0.00447
3.16800	0.00048	0.00177	0.00058	-0.00036	-3.78840	-89.73000	-0.01747	-0.00855	-0.03933	-0.01706	-0.00999	0.00447
3.17000	0.00023	0.00060	0.00028	-0.00015	-3.78840	-89.73000	0.00136	-0.00904	-0.06144	-0.01700	-0.00568	0.00435
3.17200	0.00022	0.00072	0.00053	-0.00004	-3.87860	-89.55000	0.00136	-0.00904	-0.06144	-0.01700	-0.00568	0.00435
3.17400	0.00022	0.00072	0.00053	-0.00004	-3.87860	-89.64000	0.00136	-0.00904	-0.06144	-0.01700	-0.00568	0.00435
3.17600	0.00022	0.00072	0.00053	-0.00004	-3.87860	-89.64000	0.00136	-0.00904	-0.06144	-0.01700	-0.00568	0.00435
3.17800	0.00022	0.00072	0.00053	-0.00004	-3.78840	-89.73000	0.00136	-0.00904	-0.06144	-0.01700	-0.00568	0.00435
3.18000	0.00041	0.00213	0.00003	-0.00004	-3.87860	-89.82000	-0.01984	-0.01414	-0.04605	-0.01067	-0.00308	0.00278
3.18200	0.00041	0.00213	0.00003	-0.00004	-3.78840	-89.91000	-0.01984	-0.01414	-0.04605	-0.01067	-0.00308	0.00278
3.18400	0.00041	0.00213	0.00003	-0.00004	-3.87860	-89.82000	-0.01984	-0.01414	-0.04605	-0.01067	-0.00308	0.00278
3.18600	0.00041	0.00213	0.00003	-0.00004	-3.78840	-89.64000	-0.01984	-0.01414	-0.04605	-0.01067	-0.00308	0.00278
3.18800	0.00221	0.00037	0.00036	0.00000	-3.87860	-89.73000	-0.03268	0.00423	-0.06511	-0.01234	0.00031	0.00185
3.19000	0.00221	0.00037	0.00036	0.00000	-3.78840	-89.73000	-0.03268	0.00423	-0.06511	-0.01234	0.00031	0.00185
3.19200	0.00221	0.00037	0.00036	0.00000	-3.87860	-89.64000	-0.03268	0.00423	-0.06511	-0.01234	0.00031	0.00185
3.19400	0.00221	0.00037	0.00036	0.00000	-3.87860	-89.64000	-0.03268	0.00423	-0.06511	-0.01234	0.00031	0.00185
3.19600	0.00043	0.00191	0.00031	0.00003	-3.87860	-89.73000	-0.03595	0.00349	-0.06194	-0.01092	-0.00099	0.00170
3.19800	0.00043	0.00191	0.00031	0.00003	-3.96880	-89.82000	-0.03595	0.00349	-0.06194	-0.01092	-0.00099	0.00170
3.20000	0.00043	0.00191	0.00031	0.00003	-3.96880	-89.73000	-0.03595	0.00349	-0.06194	-0.01092	-0.00099	0.00170
3.20200	0.00043	0.00191	0.00031	0.00003	-3.87860	-89.73000	-0.03595	0.00349	-0.06194	-0.01092	-0.00099	0.00170
3.20400	0.00039	0.00066	0.00034	0.00018	-3.87860	-89.82000	-0.02861	-0.00102	-0.04855	-0.01074	-0.00188	-0.00099
3.20600	0.00039	0.00066	0.00034	0.00018	-3.87860	-89.73000	-0.02861	-0.00102	-0.04855	-0.01074	-0.00188	-0.00099
3.20800	0.00039	0.00066	0.00034	0.00018	-3.78840	-89.82000	-0.02861	-0.00102	-0.04855	-0.01074	-0.00188	-0.00099
3.21000	0.00039	0.00066	0.00034	0.00018	-3.69820	-89.82000	-0.02861	-0.00102	-0.04855	-0.01074	-0.00188	-0.00099
3.21200	0.00030	0.00238	0.00046	-0.00009	-3.69820	-89.82000	-0.00395	0.01383	-0.05543	-0.01061	-0.00352	-0.00309
3.21400	0.00030	0.00238	0.00046	-0.00009	-3.78840	-89.73000	-0.00395	0.01383	-0.05543	-0.01061	-0.00352	-0.00309
3.21600	0.00030	0.00238	0.00046	-0.00009	-3.78840	-89.82000	-0.00395	0.01383	-0.05543	-0.01061	-0.00352	-0.00309
3.21800	0.00030	0.00238	0.00046	-0.00009	-3.87860	-89.82000	-0.00395	0.01383	-0.05543	-0.01061	-0.00352	-0.00309
3.22000	0.00155	0.00065	0.00024	0.00059	-3.87860	-89.82000	-0.00256	0.00753	-0.04084	-0.00972	-0.01184	-0.00367
3.22200	0.00155	0.00065	0.00024	0.00059	-3.87860	-89.82000	-0.00256	0.00753	-0.04084	-0.00972	-0.01184	-0.00367
3.22400	0.00155	0.00065	0.00024	0.00059	-3.78840	-89.82000	-0.00256	0.00753	-0.04084	-0.00972	-0.01184	-0.00367
3.22600	0.00155	0.00065	0.00024	0.00059	-3.69820	-89.82000	-0.00256	0.00753	-0.04084	-0.00972	-0.01184	-0.00367
3.22800	0.00033	0.00205	0.00056	0.00028	-3.78840	-89.73000	0.03077	0.00679	-0.00694	-0.01098	-0.01551	-0.00130
3.23000	0.00033	0.00205	0.00056	0.00028	-3.69820	-89.73000	0.03077	0.00679	-0.00694	-0.01098	-0.01551	-0.00130
3.23200	0.00033	0.00205	0.00056	0.00028	-3.78840	-89.73000	0.03077	0.00679	-0.00694	-0.01098	-0.01551	-0.00130
3.23400	0.00033	0.00205	0.00056	0.00028	-3.78840	-89.82000	0.03077	0.00679	-0.00694	-0.01098	-0.01551	-0.00130
3.23600	0.00038	0.00066	0.00045	0.00019	-3.87860	-89.82000	0.04089	-0.00086	-0.01151	-0.00947	-0.02039	0.00127
3.23800	0.00038	0.00066	0.00045	0.00019	-3.96880	-89.82000	0.04089	-0.00086	-0.01151	-0.00947	-0.02039	0.00127
3.24000	0.00038	0.00066	0.00045	0.00019	-3.78840	-89.73000	0.04089	-0.00086	-0.01151	-0.00947	-0.02039	0.00127
3.24200	0.00038	0.00066	0.00045	0.00019	-3.78840	-89.82000	0.04089	-0.00086	-0.01151	-0.00947	-0.02039	0.00127
3.24400	0.00078	0.00213	0.00044	-0.00020	-3.78840	-89.91000	0.02651	-0.00086	-0.02739	-0.01006	-0.01925	-0.00062
3.24600	0.00078	0.00213	0.00044	-0.00020	-3.69820	-89.91000	0.02651	-0.00086	-0.02739	-0.01006	-0.01925	-0.00062
3.24800	0.00078	0.00213	0.00044	-0.00020	-3.87860	-89.91000	0.02651	-0.00086	-0.02739	-0.01006	-0.01925	-0.00062
3.25000	0.00078	0.00213	0.00044	-0.00020	-3.87860	-89.82000	0.02651	-0.00086	-0.02739	-0.01006	-0.01925	-0.00062
3.25200	0.00134	0.00027	0.00064	-0.00012	-3.87860	-89.82000	0.03684	0.00062	-0.03476	-0.01222	-0.01471	-0.00031
3.25400	0.00134	0.00027	0.00064	-0.00012	-3.87860	-89.91000	0.03684	0.00062	-0.03476	-0.01222	-0.01471	-0.00031
3.25600	0.00134	0.00027	0.00064	-0.00012	-3.78840	-89.82000	0.03684	0.00062	-0.03476	-0.01222	-0.01471	-0.00031
3.25800	0.00134	0.00027	0.00064	-0.00012	-3.87860	-89.73000	0.03684	0.00062	-0.03476	-0.01222	-0.01471	-0.00031
3.26000	0.00055	0.00154	0.00031	-0.00002	-3.87860	-89.82000	0.03684	0.00062	-0.03476	-0.01222	-0.01471	-0.00031
3.26200	0.00043	0.00048	0.00034	0.00019	-3.96880	-89.73000	0.00824	-0.00935	-0.02933	-0.01101	-0.01187	0.00148
3.26400	0.00043	0.00048	0.00034	0.00019	-3.96880	-89.82000	0.00824	-0.00935	-0.02933	-0.01101	-0.01187	0.00148
3.26600	0.00043	0.00048	0.00034	0.00019	-4.05900	-89.82000	0.00824	-0.00935	-0.02933	-0.01101	-0.01187	0.00148
3.26800	0.00043	0.00048	0.00034	0.00019	-3.87860	-89.73000	0.00824	-0.00935	-0.02933	-0.01101	-0.01187	0.00148
3.27000	0.00004	0.00121	0.00048	-0.00002	-3.96880	-89.82000	0.00824	-0.00935	-0.02933	-0.01101	-0.01187	0.00148
3.27200	0.00037	0.00241	0.00055	-0.00053	-3.96880	-89.73000	-0.00660	0.01108	-0.04627	-0.01104	-0.00709	0.00309
3.27400	0.00037	0.00241	0.00055	-0.00053	-3.96880	-89.82000	-0.00660	0.01108	-0.04627	-0.01104	-0.00709	0.00309
3.27600	0.00037	0.00241	0.00055	-0.00053	-3.87860	-89.82000	-0.00660	0.01108	-0.04627	-0.01104	-0.00709	0.00309
3.27800	0.00037	0.00241	0.00055	-0.00053	-3.96880	-89.73000	-0.00660	0.01108	-0.04627	-0.01104	-0.00709	0.00309
3.28000	0.00173	0.00054	0.00038	-0.00006	-3.96880	-89.73000	-0.03259	0.01892	-0.03498	-0.01009	-0.00163	0.00031
3.28200	0.00173	0.00054	0.00038	-0.00006	-3.96880	-89.64000	-0.03259	0.01892	-0.03498	-0.01009	-0.00163	0.00031
3.28400	0.00173	0.00054	0.00038	-0.00006	-3.96880	-89.64000	-0.03259	0.01892	-0.03498	-0.01009	-0.00163	0.00031
3.28600	0.00173	0.00054	0.00038	-0.00006	-3.87860	-89.64000	-0.03259	0.01892	-0.03498	-0.01009	-0.00163	0.00031
3.28800	0.00023	0.00156	0.00025	-0.00011	-3.78840	-89.64000	-0.02663	0.02296	-0.04371	-0.00818	0.00160	0.00120
3.29000	0.00023	0.00156	0.00025	-0.00011	-3.78840	-89.55000	-0.02663	0.02296	-0.04371	-0.00818	0.00160	0.00120
3.29200	0.00023	0.00156	0.00025	-0.00011	-3.69820	-89.64000	-0.02663	0.02296	-0.04371	-0.00818	0.00160	0.00120
3.29400	0.00023	0.00156	0.00025	-0.00011	-3.78840	-89.64000	-0.02663	0.02296	-0.04371	-0.00818	0.00160	0.00120
3.29600	0.00021	0.00061	0.00048	0.00015	-3.69820	-89.73000	-0.03709	0.00556	-0.03593	-0.01163	-0.00065	-0.00451
3.29800	0.00021	0.00061	0.00048	0.00015	-3.69820	-89.82000	-0.03709	0.00556	-0.03593	-0.01163	-0.00065	-0.00451
3.30000	0.00021	0.00061	0.00048	0.00015	-3.78840	-89.82000	-0.03709	0.00556	-0.03593	-0.01163	-0.00065	-0.00451
3.30200	0.00021	0.00061	0.00048	0.00015	-3.78840	-89.82000	-0.03709	0.00556	-0.03593	-0.01163	-0.00065	-0.00451
3.30400	0.00002	0.00177	0.00043	-0.00015	-3.78840	-89.82000	-0.04406	-0.00386	-0.01820	-0.01222	-0.00031	-0.00216
3.30600	0.00002	0.00177	0.00043	-0.00015	-3.78840	-89.73000	-0.04406	-0.00386	-0.01820	-0.01222	-0.00031	-0.00216
3.30800	0.00002	0.00177	0.00043	-0.00015	-3.78840	-89.73000	-0.04406	-0.00386	-0.01820	-0.01222	-0.00031	-0.00216
3.31000	0.00002	0.00177	0.00043	-0.00015	-3.78840	-89.64000	-0.04406	-0.00386	-0.01820	-0.01222	-0.00031	-0.00216
3.31200	0.00187	0.00082	0.00060	-0.00030	-3.87860	-89.73000	-0.01953	-0.01701	-0.01968	-0.01407	0.00160	-0.00346
3.31400	0.00187	0.00082	0.00060	-0.00030	-3.87860	-89.82000	-0.01953	-0.01701	-0.01968	-0.01407	0.00160	-0.00346
3.31600	0.00187	0.00082	0.00060	-0.00030	-3.78840	-89.73000	-0.01953	-0.01701	-0.01968	-0.01407	0.00160	-0.00346
3.31800	0.00187	0.00082	0.00060	-0.00030	-3.87860	-89.73000	-0.01953	-0.01701	-0.01968	-0.01407	0.00160	-0.00346
3.32000	0.00054	0.00151	0.00034	-0.00028	-3.96880	-89.64000	-0.03613	-0.02435	-0.02320	-0.01475	0.00059	-0.00284
3.32200	0.00054	0.00151	0.00034	-0.00028	-3.96880	-89.64000	-0.03613	-0.02435	-0.02320	-0.01475	0.00059	-0.00284
3.32400	0.00054	0.00151	0.00034	-0.00028	-3.96880	-89.73000	-0.03613	-0.02435	-0.02320	-0.01475	0.00059	-0.00284
3.32600	0.00054	0.00151	0.00034	-0.00028	-3.96880	-89.73000	-0.03613	-0.02435	-0.02320	-0.01475	0.00059	-0.00284
3.32800	0.00012	0.00052	0.00013	-0.00010	-4.05900	-89.64000	-0.03077	0.00201	-0.02961	-0.01286	0.00022	-0.00231
3.33000	0.00012	0.00052	0.00013	-0.00010	-4.05900	-89.73000	-0.03077	0.00201	-0.02961	-0.01286	0.00022	-0.00231
3.33200	0.00012	0.00052	0.00013	-0.00010	-4.05900	-89.82000	-0.03077	0.00201	-0.02961	-0.01286	0.00022	-0.00231
3.33400	0.00012	0.00052	0.00013	-0.00010	-3.96880	-89.73000	-0.03077	0.00201	-0.02961	-0.01286	0.00022	-0.00231
3.33600	0.00035	0.00217	0.00020	-0.00007	-3.87860	-89.73000	-0.03496	0.00620	-0.03603	-0.01434	-0.00173	-0.00136
3.33800	0.00035	0.00217	0.00020	-0.00007	-3.87860	-89.73000	-0.03496	0.00620	-0.03603	-0.01434	-0.00173	-0.00136
3.34000	0.00035	0.00217	0.00020	-0.00007	-3.87860	-89.73000	-0.03496	0.00620	-0.03603	-0.01434	-0.00173	-0.00136
3.34200	0.00035	0.00217	0.00020	-0.00007	-3.87860	-89.73000	-0.03496	0.00620	-0.03603	-0.01434	-0.00173	-0.00136
3.34400	0.00193	0.00076	0.00046	0.00009	-3.87860	-89.82000	-0.04280	0.01306	-0.03523	-0.01206	0.00185	0.00111
3.34600	0.00193	0.00076	0.00046	0.00009	-3.78840	-89.82000	-0.04280	0.01306	-0.03523	-0.01206	0.00185	0.00111
3.34800	0.00193	0.00076	0.00046	0.00009	-3.78840	-89.73000	-0.04280	0.01306	-0.03523	-0.01206	0.00185	0.00111
3.35000	0.00193	0.00076	0.00046	0.00009	-3.87860	-89.82000	-0.04280	0.01306	-0.03523	-0.01206	0.00185	0.00111
3.35200	0.00054	0.00176	0.00040	0.00001	0.00000	0.00000	-0.03752	0.01386	-0.03766	-0.01475	0.00315	0.00327
3.35400	0.00054	0.00176	0.00040	0.00001	-3.87860	-89.73000	-0.03752	0.01386	-0.03766	-0.01475	0.00315	0.00327
3.35600	0.00054	0.00176	0.00040	0.00001	-3.87860	-89.73000	-0.03752	0.01386	-0.03766	-0.01475	0.00315	0.00327
3.35800	0.00054	0.00176	0.00040	0.00001	-3.87860	-89.73000	-0.03752	0.01386	-0.03766	-0.01475	0.00315	0.00327
3.36000	0.00009	0.00063	0.00024	-0.00015	-3.87860	-89.55000	-0.05632	-0.01997	-0.02940	-0.01765	0.00302	0.00182
3.36200	0.00009	0.00063	0.00024	-0.00015	-3.87860	-89.64000	-0.05632	-0.01997	-0.02940	-0.01765	0.00302	0.00182
3.36400	0.00009	0.00063	0.00024	-0.00015	-3.87860	-89.73000	-0.05632	-0.01997	-0.02940	-0.01765	0.00302	0.00182
3.36600	0.00009	0.00063	0.00024	-0.00015	-3.87860	-89.73000	-0.05632	-0.01997	-0.02940	-0.01765	0.00302	0.00182
3.36800	0.00059	0.00212	0.00023	-0.00013	-4.05900	-89.91000	-0.02848	-0.02781	-0.03344	-0.02088	0.00188	0.00151
3.37000	0.00059	0.00212	0.00023	-0.00013	-3.96880	-89.82000	-0.02848	-0.02781	-0.03344	-0.02088	0.00188	0.00151
3.37200	0.00059	0.00212	0.00023	-0.00013	-3.96880	-89.82000	-0.02848	-0.02781	-0.03344	-0.02088	0.00188	0.00151
3.37400	0.00059	0.00212	0.00023	-0.00013	0.00000	0.00000	-0.02848	-0.02781	-0.03344	-0.02088	0.00188	0.00151
3.37600	0.00171	0.00077	0.00032	-0.00004	-3.87860	-89.82000	-0.03274	-0.03747	-0.03646	-0.02301	-0.00382	-0.00444
3.37800	0.00171	0.00077	0.00032	-0.00004	-3.96880	-89.91000	-0.03274	-0.03747	-0.03646	-0.02301	-0.00382	-0.00444
3.38000	0.00171	0.00077	0.00032	-0.00004	-3.87860	-89.73000	-0.03274	-0.03747	-0.03646	-0.02301	-0.00382	-0.00444
3.38200	0.00171	0.00077	0.00032	-0.00004	-3.87860	-89.73000	-0.03274	-0.03747	-0.03646	-0.02301	-0.00382	-0.00444
3.38400	0.00057	0.00184	0.00031	0.00001	-3.78840	-89.73000	-0.02422	-0.03404	-0.02813	-0.02227	-0.00626	0.00034
3.38600	0.00057	0.00184	0.00031	0.00001	-3.69820	-89.82000	-0.02422	-0.03404	-0.02813	-0.02227	-0.00626	0.00034
3.38800	0.00057	0.00184	0.00031	0.00001	-3.78840	-89.82000	-0.02422	-0.03404	-0.02813	-0.02227	-0.00626	0.00034
3.39000	0.00057	0.00184	0.00031	0.00001	-3.78840	-89.82000	-0.02422	-0.03404	-0.02813	-0.02227	-0.00626	0.00034
3.39200	-0.00001	0.00067	0.00029	-0.00007	-3.78840	-89.73000	0.00244	-0.02960	-0.01447	-0.02363	-0.00796	-0.00210
3.39400	-0.00001	0.00067	0.00029	-0.00007	-3.96880	-89.82000	0.00244	-0.02960	-0.01447	-0.02363	-0.00796	-0.00210
3.39600	-0.00001	0.00067	0.00029	-0.00007	-3.96880	-89.82000	0.00244	-0.02960	-0.01447	-0.02363	-0.00796	-0.00210
