/***********************************************************
* Ocean Resources and Renewable Energy Laboratory
* Version: v1.0 (Released on May 1st, 2021)
* Programmed by: Jessica Nguyen (Email: nvnguyen@umass.edu)
*----------------------------------------------------------
* Project Name:	NREL_VGOSWEC_freedecay_VGM10
* Project Lead:	JD
* Labview Operator:	JD
* Comments:	VGOSWEC scale model with 5.25" diameter cylindrical foundation and three pairs of opposing torsional springs. Model centered in window 2,  193.5 in from the start of the tank; probe positions: probe 1 (staff, front) - 134 in; probe 2 (sonic, alongside) - 193.5 in; probe 3 (staff, behind) - 274.5 in ; probe 4 (sonic, behind) - 332.5 in. Data aquisition specifications: wave start time: 0 s; wave end time: 40 s; delta t: 0.05; ramp time: 3 s; end time delay: 20 s; sampling rate: 2 ms. Kistler force cal factor: 1 V/N (X), 1 V/N (Y), 0.6667 V/N (Z); Kistler moment cal factor: 3.33 V/Nm (Y), 3.33  V Nm (X,Z). Naming convention: T(period)_A(actuator amp)_B(beach distance)_VGM(variable geometry module angle).
* Date and Time:	Thu 17 Jun 2021 04:25:15 PM EDT
***********************************************************/

"Time(s)"	"WP1(m)"	"WP2(m)"	"WP3(m)"	"WP4(m)"	"Roll(deg)"	"Pitch(deg)"	"ForceX(N)"	"ForceY(N)"	"ForceZ(N)"	"MomentX"	"MomentY"	"MomentZ"	
0.00000	-2.04004	-1.96297	-0.47417	-0.44938	0.00000	0.00000	0.01549	-0.02860	-0.04961	-0.00150	-0.00363	-0.00107
0.00200	-2.04004	-1.96297	-0.47417	-0.44938	-3.87860	-89.91000	0.01549	-0.02860	-0.04961	-0.00150	-0.00363	-0.00107
0.00400	-2.04004	-1.96297	-0.47417	-0.44938	0.00000	0.00000	0.01549	-0.02860	-0.04961	-0.00150	-0.00363	-0.00107
0.00600	-2.04004	-1.96297	-0.47417	-0.44938	-3.96880	-89.82000	0.01549	-0.02860	-0.04961	-0.00150	-0.00363	-0.00107
0.00800	-0.00046	0.00039	0.00034	0.00016	-3.87860	-89.73000	0.01549	-0.02860	-0.04961	-0.00150	-0.00363	-0.00107
0.01000	-0.00046	0.00039	0.00034	0.00016	0.00000	0.00000	-0.12158	-0.11296	-0.01249	-0.00231	-0.00441	0.01157
0.01200	-0.00046	0.00039	0.00034	0.00016	-3.96880	-89.82000	-0.12158	-0.11296	-0.01249	-0.00231	-0.00441	0.01157
0.01400	-0.00046	0.00039	0.00034	0.00016	-3.78840	-89.73000	-0.12158	-0.11296	-0.01249	-0.00231	-0.00441	0.01157
0.01600	-0.00046	0.00039	0.00034	0.00016	-3.78840	-89.64000	-0.12158	-0.11296	-0.01249	-0.00231	-0.00441	0.01157
0.01800	-0.00037	-0.00023	0.00070	0.00042	0.00000	0.00000	-0.10224	-0.09331	-0.01141	-0.00130	-0.00740	0.01086
0.02000	-0.00037	-0.00023	0.00070	0.00042	-3.87860	-89.73000	-0.10224	-0.09331	-0.01141	-0.00130	-0.00740	0.01086
0.02200	-0.00037	-0.00023	0.00070	0.00042	-3.87860	-89.73000	-0.10224	-0.09331	-0.01141	-0.00130	-0.00740	0.01086
0.02400	-0.00037	-0.00023	0.00070	0.00042	-3.96880	-89.73000	-0.10224	-0.09331	-0.01141	-0.00130	-0.00740	0.01086
0.02600	0.00083	0.00129	0.00060	0.00035	0.00000	0.00000	-0.10142	-0.06893	-0.00324	0.00222	-0.01502	0.01148
0.02800	0.00083	0.00129	0.00060	0.00035	-3.87860	-89.82000	-0.10142	-0.06893	-0.00324	0.00222	-0.01502	0.01148
0.03000	0.00083	0.00129	0.00060	0.00035	-3.96880	-89.73000	-0.10142	-0.06893	-0.00324	0.00222	-0.01502	0.01148
0.03200	0.00083	0.00129	0.00060	0.00035	0.00000	0.00000	-0.10142	-0.06893	-0.00324	0.00222	-0.01502	0.01148
0.03400	-0.00060	0.00010	0.00074	0.00061	-3.96880	-89.82000	-0.09237	-0.02099	0.02051	0.00719	-0.00716	0.00966
0.03600	-0.00060	0.00010	0.00074	0.00061	-3.78840	-89.82000	-0.09237	-0.02099	0.02051	0.00719	-0.00716	0.00966
0.03800	-0.00060	0.00010	0.00074	0.00061	-3.78840	-89.82000	-0.09237	-0.02099	0.02051	0.00719	-0.00716	0.00966
0.04000	-0.00060	0.00010	0.00074	0.00061	0.00000	0.00000	-0.09237	-0.02099	0.02051	0.00719	-0.00716	0.00966
0.04200	-0.00093	0.00106	0.00058	0.00077	-3.78840	-89.73000	-0.07612	0.00391	0.07202	0.00938	-0.00891	0.00710
0.04400	-0.00093	0.00106	0.00058	0.00077	-3.87860	-89.64000	-0.07612	0.00391	0.07202	0.00938	-0.00891	0.00710
0.04600	-0.00093	0.00106	0.00058	0.00077	-3.96880	-89.64000	-0.07612	0.00391	0.07202	0.00938	-0.00891	0.00710
0.04800	-0.00093	0.00106	0.00058	0.00077	0.00000	0.00000	-0.07612	0.00391	0.07202	0.00938	-0.00891	0.00710
0.05000	-0.00065	-0.00001	0.00073	0.00090	-3.87860	-89.73000	-0.09340	-0.00607	0.16517	0.00851	-0.01632	0.00787
0.05200	-0.00065	-0.00001	0.00073	0.00090	-3.87860	-89.82000	-0.09340	-0.00607	0.16517	0.00851	-0.01632	0.00787
0.05400	-0.00065	-0.00001	0.00073	0.00090	-3.78840	-89.91000	-0.09340	-0.00607	0.16517	0.00851	-0.01632	0.00787
0.05600	-0.00065	-0.00001	0.00073	0.00090	0.00000	0.00000	-0.09340	-0.00607	0.16517	0.00851	-0.01632	0.00787
0.05800	0.00113	0.00084	0.00059	0.00075	-3.69820	-89.91000	-0.06459	-0.01564	0.23826	0.00864	-0.01770	0.00694
0.06000	0.00113	0.00084	0.00059	0.00075	-3.69820	-90.00000	-0.06459	-0.01564	0.23826	0.00864	-0.01770	0.00694
0.06200	0.00113	0.00084	0.00059	0.00075	0.00000	0.00000	-0.06459	-0.01564	0.23826	0.00864	-0.01770	0.00694
0.06400	0.00113	0.00084	0.00059	0.00075	-3.69820	-90.00000	-0.06459	-0.01564	0.23826	0.00864	-0.01770	0.00694
0.06600	-0.00048	0.00001	0.00059	0.00069	-3.69820	-89.91000	-0.04094	-0.05916	0.29532	0.00410	-0.01807	0.00694
0.06800	-0.00048	0.00001	0.00059	0.00069	-3.78840	-90.00000	-0.04094	-0.05916	0.29532	0.00410	-0.01807	0.00694
0.07000	-0.00048	0.00001	0.00059	0.00069	0.00000	0.00000	-0.04094	-0.05916	0.29532	0.00410	-0.01807	0.00694
0.07200	-0.00048	0.00001	0.00059	0.00069	-3.78840	-90.00000	-0.04094	-0.05916	0.29532	0.00410	-0.01807	0.00694
0.07400	-0.00032	0.00094	0.00072	0.00000	-3.69820	-90.00000	-0.04474	-0.07191	0.38492	0.00395	-0.01980	0.00599
0.07600	-0.00032	0.00094	0.00072	0.00000	-3.78840	-90.00000	-0.04474	-0.07191	0.38492	0.00395	-0.01980	0.00599
0.07800	-0.00032	0.00094	0.00072	0.00000	0.00000	0.00000	-0.04474	-0.07191	0.38492	0.00395	-0.01980	0.00599
0.08000	-0.00032	0.00094	0.00072	0.00000	-3.69820	-90.00000	-0.04474	-0.07191	0.38492	0.00395	-0.01980	0.00599
0.08200	-0.00033	-0.00051	0.00049	0.00040	-3.69820	-89.91000	-0.00504	-0.04763	0.42841	0.00710	-0.02736	0.00670
0.08400	-0.00033	-0.00051	0.00049	0.00040	0.00000	0.00000	-0.00504	-0.04763	0.42841	0.00710	-0.02736	0.00670
0.08600	-0.00033	-0.00051	0.00049	0.00040	-3.69820	-90.00000	-0.00504	-0.04763	0.42841	0.00710	-0.02736	0.00670
0.08800	-0.00033	-0.00051	0.00049	0.00040	-3.78840	-90.09000	-0.00504	-0.04763	0.42841	0.00710	-0.02736	0.00670
0.09000	0.00072	0.00123	0.00065	0.00025	-3.69820	-90.09000	0.00370	-0.04928	0.47206	0.00623	-0.03393	0.00849
0.09200	0.00072	0.00123	0.00065	0.00025	0.00000	0.00000	0.00370	-0.04928	0.47206	0.00623	-0.03393	0.00849
0.09400	0.00072	0.00123	0.00065	0.00025	-3.87860	-90.00000	0.00370	-0.04928	0.47206	0.00623	-0.03393	0.00849
0.09600	0.00072	0.00123	0.00065	0.00025	-3.96880	-90.00000	0.00370	-0.04928	0.47206	0.00623	-0.03393	0.00849
0.09800	-0.00027	-0.00007	0.00088	0.00031	-3.87860	-90.09000	0.01471	-0.02027	0.44985	0.01178	-0.03390	0.01244
0.10000	-0.00032	0.00105	0.00056	0.00089	0.00000	0.00000	0.01471	-0.02027	0.44985	0.01178	-0.03390	0.01244
0.10200	-0.00032	0.00105	0.00056	0.00089	-3.87860	-90.09000	0.01471	-0.02027	0.44985	0.01178	-0.03390	0.01244
0.10400	-0.00032	0.00105	0.00056	0.00089	-3.87860	-90.18000	0.01471	-0.02027	0.44985	0.01178	-0.03390	0.01244
0.10600	-0.00032	0.00105	0.00056	0.00089	-3.78840	-90.09000	0.01471	-0.02027	0.44985	0.01178	-0.03390	0.01244
0.10800	-0.00072	0.00045	0.00097	0.00046	-3.78840	-90.00000	0.02787	-0.04907	0.42163	0.00648	-0.03226	0.01065
0.11000	-0.00072	0.00045	0.00097	0.00046	-3.87860	-90.00000	0.02787	-0.04907	0.42163	0.00648	-0.03226	0.01065
0.11200	-0.00072	0.00045	0.00097	0.00046	-3.87860	-90.09000	0.02787	-0.04907	0.42163	0.00648	-0.03226	0.01065
0.11400	-0.00072	0.00045	0.00097	0.00046	0.00000	0.00000	0.02787	-0.04907	0.42163	0.00648	-0.03226	0.01065
0.11600	0.00049	-0.00015	0.00082	0.00010	-3.87860	-90.00000	0.02787	-0.04907	0.42163	0.00648	-0.03226	0.01065
0.11800	0.00030	0.00208	0.00024	0.00049	-3.78840	-89.91000	-0.07457	-0.11019	0.38061	-0.00207	-0.02575	0.01484
0.12000	0.00030	0.00208	0.00024	0.00049	-3.69820	-89.91000	-0.07457	-0.11019	0.38061	-0.00207	-0.02575	0.01484
0.12200	0.00030	0.00208	0.00024	0.00049	0.00000	0.00000	-0.07457	-0.11019	0.38061	-0.00207	-0.02575	0.01484
0.12400	0.00030	0.00208	0.00024	0.00049	-3.69820	-89.91000	-0.07457	-0.11019	0.38061	-0.00207	-0.02575	0.01484
0.12600	-0.00059	0.00056	0.00073	0.00046	-3.69820	-90.00000	-0.03446	0.01163	0.25184	0.00481	-0.00941	0.01126
0.12800	-0.00059	0.00056	0.00073	0.00046	-3.69820	-89.91000	-0.03446	0.01163	0.25184	0.00481	-0.00941	0.01126
0.13000	-0.00059	0.00056	0.00073	0.00046	0.00000	0.00000	-0.03446	0.01163	0.25184	0.00481	-0.00941	0.01126
0.13200	-0.00059	0.00056	0.00073	0.00046	-3.87860	-90.00000	-0.03446	0.01163	0.25184	0.00481	-0.00941	0.01126
0.13400	-0.00034	0.00073	0.00052	0.00032	-3.96880	-89.91000	-0.03950	-0.09434	0.18676	0.00645	-0.01416	0.00997
0.13600	-0.00034	0.00073	0.00052	0.00032	0.00000	0.00000	-0.03950	-0.09434	0.18676	0.00645	-0.01416	0.00997
0.13800	-0.00034	0.00073	0.00052	0.00032	-3.96880	-89.73000	-0.03950	-0.09434	0.18676	0.00645	-0.01416	0.00997
0.14000	-0.00034	0.00073	0.00052	0.00032	-3.96880	-89.82000	-0.03950	-0.09434	0.18676	0.00645	-0.01416	0.00997
0.14200	-0.00062	0.00002	0.00095	0.00048	-3.96880	-89.73000	-0.03950	-0.09434	0.18676	0.00645	-0.01416	0.00997
0.14400	-0.00001	-0.00026	0.00095	0.00083	0.00000	0.00000	-0.19008	-0.08333	0.09716	0.00099	-0.00771	0.00855
0.14600	-0.00001	-0.00026	0.00095	0.00083	-3.96880	-89.73000	-0.19008	-0.08333	0.09716	0.00099	-0.00771	0.00855
0.14800	-0.00001	-0.00026	0.00095	0.00083	-3.87860	-89.73000	-0.19008	-0.08333	0.09716	0.00099	-0.00771	0.00855
0.15000	-0.00001	-0.00026	0.00095	0.00083	-3.96880	-89.73000	-0.19008	-0.08333	0.09716	0.00099	-0.00771	0.00855
0.15200	0.00165	0.00090	0.00058	0.00022	0.00000	0.00000	-0.08650	0.08241	-0.05490	0.01240	0.00965	0.00938
0.15400	0.00165	0.00090	0.00058	0.00022	-3.87860	-89.73000	-0.08650	0.08241	-0.05490	0.01240	0.00965	0.00938
0.15600	0.00165	0.00090	0.00058	0.00022	-3.87860	-89.73000	-0.08650	0.08241	-0.05490	0.01240	0.00965	0.00938
0.15800	0.00165	0.00090	0.00058	0.00022	0.00000	0.00000	-0.08650	0.08241	-0.05490	0.01240	0.00965	0.00938
0.16000	-0.00029	-0.00032	0.00079	0.00034	-4.05900	-89.73000	-0.02191	-0.15154	-0.10949	0.00716	-0.00031	0.00808
0.16200	-0.00029	-0.00032	0.00079	0.00034	-3.96880	-89.73000	-0.02191	-0.15154	-0.10949	0.00716	-0.00031	0.00808
0.16400	-0.00029	-0.00032	0.00079	0.00034	-3.78840	-89.73000	-0.02191	-0.15154	-0.10949	0.00716	-0.00031	0.00808
0.16600	-0.00029	-0.00032	0.00079	0.00034	0.00000	0.00000	-0.02191	-0.15154	-0.10949	0.00716	-0.00031	0.00808
0.16800	-0.00080	0.00128	0.00037	0.00049	-3.78840	-89.91000	-0.15182	-0.12274	-0.18336	-0.00475	-0.01366	0.00679
0.17000	-0.00080	0.00128	0.00037	0.00049	-3.69820	-89.82000	-0.15182	-0.12274	-0.18336	-0.00475	-0.01366	0.00679
0.17200	-0.00080	0.00128	0.00037	0.00049	-3.69820	-89.73000	-0.15182	-0.12274	-0.18336	-0.00475	-0.01366	0.00679
0.17400	-0.00080	0.00128	0.00037	0.00049	0.00000	0.00000	-0.15182	-0.12274	-0.18336	-0.00475	-0.01366	0.00679
0.17600	-0.00091	-0.00024	0.00071	0.00085	-3.78840	-89.64000	-0.13094	0.06780	-0.32046	0.01444	-0.01104	0.00738
0.17800	0.00200	0.00054	0.00107	0.00098	-3.69820	-89.64000	-0.13094	0.06780	-0.32046	0.01444	-0.01104	0.00738
0.18000	0.00200	0.00054	0.00107	0.00098	0.00000	0.00000	-0.13094	0.06780	-0.32046	0.01444	-0.01104	0.00738
0.18200	0.00200	0.00054	0.00107	0.00098	-3.78840	-89.46000	-0.13094	0.06780	-0.32046	0.01444	-0.01104	0.00738
0.18400	0.00200	0.00054	0.00107	0.00098	-3.78840	-89.55000	-0.13094	0.06780	-0.32046	0.01444	-0.01104	0.00738
0.18600	-0.00002	0.00074	0.00088	0.00044	-3.87860	-89.64000	-0.03168	-0.10823	-0.36133	0.02061	0.00611	0.01108
0.18800	-0.00002	0.00074	0.00088	0.00044	0.00000	0.00000	-0.03168	-0.10823	-0.36133	0.02061	0.00611	0.01108
0.19000	-0.00002	0.00074	0.00088	0.00044	-3.96880	-89.73000	-0.03168	-0.10823	-0.36133	0.02061	0.00611	0.01108
0.19200	-0.00002	0.00074	0.00088	0.00044	-3.96880	-89.73000	-0.03168	-0.10823	-0.36133	0.02061	0.00611	0.01108
0.19400	-0.00074	-0.00002	0.00063	0.00049	-3.87860	-89.64000	-0.21580	-0.00195	-0.33049	0.01240	0.00907	0.00923
0.19600	-0.00074	-0.00002	0.00063	0.00049	0.00000	0.00000	-0.21580	-0.00195	-0.33049	0.01240	0.00907	0.00923
0.19800	-0.00074	-0.00002	0.00063	0.00049	-3.69820	-89.64000	-0.21580	-0.00195	-0.33049	0.01240	0.00907	0.00923
0.20000	-0.00074	-0.00002	0.00063	0.00049	-3.69820	-89.64000	-0.21580	-0.00195	-0.33049	0.01240	0.00907	0.00923
0.20200	-0.00110	0.00080	0.00035	0.00063	0.00000	0.00000	-0.16313	0.00586	-0.33820	0.01438	0.01416	0.00781
0.20400	-0.00110	0.00080	0.00035	0.00063	-3.87860	-89.46000	-0.16313	0.00586	-0.33820	0.01438	0.01416	0.00781
0.20600	-0.00110	0.00080	0.00035	0.00063	-3.78840	-89.46000	-0.16313	0.00586	-0.33820	0.01438	0.01416	0.00781
0.20800	-0.00110	0.00080	0.00035	0.00063	-3.78840	-89.46000	-0.16313	0.00586	-0.33820	0.01438	0.01416	0.00781
0.21000	0.00052	-0.00029	0.00089	0.00056	0.00000	0.00000	-0.12590	-0.12058	-0.27404	0.02267	0.03078	0.00700
0.21200	0.00052	-0.00029	0.00089	0.00056	-3.87860	-89.55000	-0.12590	-0.12058	-0.27404	0.02267	0.03078	0.00700
0.21400	0.00052	-0.00029	0.00089	0.00056	-3.96880	-89.64000	-0.12590	-0.12058	-0.27404	0.02267	0.03078	0.00700
0.21600	0.00052	-0.00029	0.00089	0.00056	-3.96880	-89.64000	-0.12590	-0.12058	-0.27404	0.02267	0.03078	0.00700
0.21800	0.00026	0.00029	0.00078	-0.00003	0.00000	0.00000	-0.25355	0.02284	-0.28777	0.02270	0.03016	0.01194
0.22000	0.00026	0.00029	0.00078	-0.00003	-3.96880	-89.64000	-0.25355	0.02284	-0.28777	0.02270	0.03016	0.01194
0.22200	0.00026	0.00029	0.00078	-0.00003	-3.87860	-89.55000	-0.25355	0.02284	-0.28777	0.02270	0.03016	0.01194
0.22400	0.00026	0.00029	0.00078	-0.00003	0.00000	0.00000	-0.25355	0.02284	-0.28777	0.02270	0.03016	0.01194
0.22600	-0.00041	-0.00037	0.00069	0.00003	-3.78840	-89.55000	-0.14668	0.06327	-0.22099	0.02101	0.01807	0.01117
0.22800	-0.00041	-0.00037	0.00069	0.00003	-3.78840	-89.55000	-0.14668	0.06327	-0.22099	0.02101	0.01807	0.01117
0.23000	-0.00041	-0.00037	0.00069	0.00003	-3.78840	-89.46000	-0.14668	0.06327	-0.22099	0.02101	0.01807	0.01117
0.23200	-0.00041	-0.00037	0.00069	0.00003	0.00000	0.00000	-0.14668	0.06327	-0.22099	0.02101	0.01807	0.01117
0.23400	-0.00033	0.00054	0.00074	0.00008	-3.87860	-89.64000	-0.07961	-0.02253	-0.05829	0.03467	0.00749	0.01120
0.23600	-0.00033	0.00054	0.00074	0.00008	-3.78840	-89.55000	-0.07961	-0.02253	-0.05829	0.03467	0.00749	0.01120
0.23800	-0.00033	0.00054	0.00074	0.00008	-3.87860	-89.64000	-0.07961	-0.02253	-0.05829	0.03467	0.00749	0.01120
0.24000	-0.00033	0.00054	0.00074	0.00008	0.00000	0.00000	-0.07961	-0.02253	-0.05829	0.03467	0.00749	0.01120
0.24200	0.00062	0.00050	0.00087	0.00006	-3.87860	-89.55000	-0.15141	0.10628	-0.01218	0.03964	0.00645	0.01228
0.24400	0.00062	0.00050	0.00087	0.00006	-3.78840	-89.64000	-0.15141	0.10628	-0.01218	0.03964	0.00645	0.01228
0.24600	0.00062	0.00050	0.00087	0.00006	-3.87860	-89.64000	-0.15141	0.10628	-0.01218	0.03964	0.00645	0.01228
0.24800	0.00062	0.00050	0.00087	0.00006	0.00000	0.00000	-0.15141	0.10628	-0.01218	0.03964	0.00645	0.01228
0.25000	-0.00049	0.00054	0.00094	0.00022	-3.69820	-89.55000	-0.10543	0.11101	0.02005	0.03248	0.00413	0.01157
0.25200	-0.00049	0.00054	0.00094	0.00022	-3.69820	-89.73000	-0.10543	0.11101	0.02005	0.03248	0.00413	0.01157
0.25400	-0.00049	0.00054	0.00094	0.00022	0.00000	0.00000	-0.10543	0.11101	0.02005	0.03248	0.00413	0.01157
0.25600	-0.00049	0.00054	0.00094	0.00022	-3.78840	-89.82000	-0.10543	0.11101	0.02005	0.03248	0.00413	0.01157
0.25800	-0.00083	-0.00017	0.00081	0.00073	-3.78840	-89.82000	-0.01173	-0.05597	0.20943	0.02761	0.00315	0.00966
0.26000	-0.00083	-0.00017	0.00081	0.00073	-3.87860	-89.82000	-0.01173	-0.05597	0.20943	0.02761	0.00315	0.00966
0.26200	-0.00083	-0.00017	0.00081	0.00073	0.00000	0.00000	-0.01173	-0.05597	0.20943	0.02761	0.00315	0.00966
0.26400	-0.00083	-0.00017	0.00081	0.00073	-3.96880	-89.82000	-0.01173	-0.05597	0.20943	0.02761	0.00315	0.00966
0.26600	-0.00061	0.00034	0.00080	0.00024	-3.87860	-89.82000	-0.06974	0.04054	0.26186	0.03107	-0.00796	0.00929
0.26800	-0.00061	0.00034	0.00080	0.00024	-3.87860	-89.82000	-0.06974	0.04054	0.26186	0.03107	-0.00796	0.00929
0.27000	-0.00061	0.00034	0.00080	0.00024	0.00000	0.00000	-0.06974	0.04054	0.26186	0.03107	-0.00796	0.00929
0.27200	-0.00061	0.00034	0.00080	0.00024	-3.87860	-89.73000	-0.06974	0.04054	0.26186	0.03107	-0.00796	0.00929
0.27400	0.00101	0.00024	0.00060	0.00054	-3.87860	-89.73000	-0.07694	0.13313	0.25584	0.04174	-0.01826	0.00685
0.27600	0.00101	0.00024	0.00060	0.00054	0.00000	0.00000	-0.07694	0.13313	0.25584	0.04174	-0.01826	0.00685
0.27800	0.00101	0.00024	0.00060	0.00054	-3.87860	-89.91000	-0.07694	0.13313	0.25584	0.04174	-0.01826	0.00685
0.28000	0.00101	0.00024	0.00060	0.00054	-3.78840	-89.91000	-0.07694	0.13313	0.25584	0.04174	-0.01826	0.00685
0.28200	-0.00009	0.00039	0.00060	0.00093	-3.87860	-89.91000	0.01851	0.02942	0.35377	0.04381	-0.00851	0.00562
0.28400	-0.00009	0.00039	0.00060	0.00093	0.00000	0.00000	0.01851	0.02942	0.35377	0.04381	-0.00851	0.00562
0.28600	-0.00009	0.00039	0.00060	0.00093	-3.78840	-89.91000	0.01851	0.02942	0.35377	0.04381	-0.00851	0.00562
0.28800	-0.00009	0.00039	0.00060	0.00093	-3.87860	-89.91000	0.01851	0.02942	0.35377	0.04381	-0.00851	0.00562
0.29000	-0.00061	0.00048	0.00088	0.00048	-3.87860	-89.91000	0.01851	0.02942	0.35377	0.04381	-0.00851	0.00562
0.29200	-0.00005	0.00038	0.00047	0.00036	0.00000	0.00000	-0.02592	0.07335	0.36395	0.03767	-0.01585	0.00592
0.29400	-0.00005	0.00038	0.00047	0.00036	-3.69820	-89.82000	-0.02592	0.07335	0.36395	0.03767	-0.01585	0.00592
0.29600	-0.00005	0.00038	0.00047	0.00036	-3.78840	-89.73000	-0.02592	0.07335	0.36395	0.03767	-0.01585	0.00592
0.29800	-0.00005	0.00038	0.00047	0.00036	0.00000	0.00000	-0.02592	0.07335	0.36395	0.03767	-0.01585	0.00592
0.30000	-0.00001	-0.00038	0.00066	0.00017	-3.60800	-89.82000	-0.03456	0.00782	0.32555	0.03295	-0.01511	0.00370
0.30200	-0.00001	-0.00038	0.00066	0.00017	-3.60800	-89.91000	-0.03456	0.00782	0.32555	0.03295	-0.01511	0.00370
0.30400	-0.00001	-0.00038	0.00066	0.00017	-3.78840	-89.82000	-0.03456	0.00782	0.32555	0.03295	-0.01511	0.00370
0.30600	-0.00001	-0.00038	0.00066	0.00017	0.00000	0.00000	-0.03456	0.00782	0.32555	0.03295	-0.01511	0.00370
0.30800	0.00111	0.00071	0.00076	0.00071	-3.87860	-90.00000	0.02088	-0.05010	0.34267	0.03159	-0.01536	0.00278
0.31000	0.00111	0.00071	0.00076	0.00071	-3.78840	-89.91000	0.02088	-0.05010	0.34267	0.03159	-0.01536	0.00278
0.31200	0.00111	0.00071	0.00076	0.00071	-3.87860	-90.00000	0.02088	-0.05010	0.34267	0.03159	-0.01536	0.00278
0.31400	0.00111	0.00071	0.00076	0.00071	0.00000	0.00000	0.02088	-0.05010	0.34267	0.03159	-0.01536	0.00278
0.31600	-0.00049	-0.00034	0.00090	0.00039	-3.78840	-90.09000	0.02088	-0.05010	0.34267	0.02656	-0.01453	0.00386
0.31800	-0.00079	-0.00059	0.00077	0.00058	-3.87860	-90.09000	-0.03024	0.01080	0.28299	0.02656	-0.01453	0.00386
0.32000	-0.00079	-0.00059	0.00077	0.00058	0.00000	0.00000	-0.03024	0.01080	0.28299	0.02656	-0.01453	0.00386
0.32200	-0.00079	-0.00059	0.00077	0.00058	-3.69820	-89.91000	-0.03024	0.01080	0.28299	0.02656	-0.01453	0.00386
0.32400	-0.00079	-0.00059	0.00077	0.00058	-3.60800	-89.82000	-0.03024	0.01080	0.28299	0.02656	-0.01453	0.00386
0.32600	-0.00115	0.00121	0.00062	0.00072	-3.60800	-89.73000	0.00936	0.01173	0.23040	0.03029	-0.01789	0.00435
0.32800	-0.00115	0.00121	0.00062	0.00072	0.00000	0.00000	0.00936	0.01173	0.23040	0.03029	-0.01789	0.00435
0.33000	-0.00115	0.00121	0.00062	0.00072	-3.78840	-89.64000	0.00936	0.01173	0.23040	0.03029	-0.01789	0.00435
0.33200	-0.00115	0.00121	0.00062	0.00072	-3.69820	-89.73000	0.00936	0.01173	0.23040	0.03029	-0.01789	0.00435
0.33400	0.00035	-0.00013	0.00042	0.00079	-3.69820	-89.73000	-0.00339	-0.00165	0.24613	0.03495	-0.02471	0.00685
0.33600	0.00035	-0.00013	0.00042	0.00079	0.00000	0.00000	-0.00339	-0.00165	0.24613	0.03495	-0.02471	0.00685
0.33800	0.00035	-0.00013	0.00042	0.00079	-3.69820	-89.82000	-0.00339	-0.00165	0.24613	0.03495	-0.02471	0.00685
0.34000	0.00035	-0.00013	0.00042	0.00079	-3.60800	-89.82000	-0.00339	-0.00165	0.24613	0.03495	-0.02471	0.00685
0.34200	0.00005	0.00155	0.00077	0.00051	0.00000	0.00000	-0.00339	-0.00165	0.24613	0.03495	-0.02471	0.00685
0.34400	-0.00117	0.00026	0.00088	-0.00020	-3.60800	-89.82000	-0.07684	-0.01934	0.15206	0.02625	-0.00996	0.00688
0.34600	-0.00117	0.00026	0.00088	-0.00020	-3.60800	-89.82000	-0.07684	-0.01934	0.15206	0.02625	-0.00996	0.00688
0.34800	-0.00117	0.00026	0.00088	-0.00020	-3.51780	-89.82000	-0.07684	-0.01934	0.15206	0.02625	-0.00996	0.00688
0.35000	-0.00117	0.00026	0.00088	-0.00020	0.00000	0.00000	-0.07684	-0.01934	0.15206	0.02625	-0.00996	0.00688
0.35200	-0.00046	0.00074	0.00098	0.00025	-3.69820	-89.73000	-0.03909	-0.03755	0.15977	0.02033	0.01178	0.00858
0.35400	-0.00046	0.00074	0.00098	0.00025	-3.78840	-89.82000	-0.03909	-0.03755	0.15977	0.02033	0.01178	0.00858
0.35600	-0.00046	0.00074	0.00098	0.00025	-3.87860	-89.82000	-0.03909	-0.03755	0.15977	0.02033	0.01178	0.00858
0.35800	-0.00046	0.00074	0.00098	0.00025	0.00000	0.00000	-0.03909	-0.03755	0.15977	0.02033	0.01178	0.00858
0.36000	-0.00039	0.00073	0.00048	0.00010	-3.96880	-89.73000	-0.11993	-0.03405	0.15098	0.02314	0.01656	0.00901
0.36200	-0.00039	0.00073	0.00048	0.00010	-3.96880	-89.82000	-0.11993	-0.03405	0.15098	0.02314	0.01656	0.00901
0.36400	-0.00039	0.00073	0.00048	0.00010	0.00000	0.00000	-0.11993	-0.03405	0.15098	0.02314	0.01656	0.00901
0.36600	-0.00039	0.00073	0.00048	0.00010	-3.96880	-89.91000	-0.11993	-0.03405	0.15098	0.02314	0.01656	0.00901
0.36800	0.00088	0.00078	0.00087	0.00088	-3.69820	-89.82000	-0.15388	0.06759	0.07618	0.02854	0.00981	0.01058
0.37000	0.00088	0.00078	0.00087	0.00088	-3.69820	-89.82000	-0.15388	0.06759	0.07618	0.02854	0.00981	0.01058
0.37200	0.00088	0.00078	0.00087	0.00088	0.00000	0.00000	-0.15388	0.06759	0.07618	0.02854	0.00981	0.01058
0.37400	0.00088	0.00078	0.00087	0.00088	-3.51780	-89.64000	-0.15388	0.06759	0.07618	0.02854	0.00981	0.01058
0.37600	-0.00049	0.00040	0.00074	0.00046	-3.69820	-89.73000	-0.12333	0.03611	0.07109	0.02915	0.01499	0.00836
0.37800	-0.00049	0.00040	0.00074	0.00046	-3.69820	-89.82000	-0.12333	0.03611	0.07109	0.02915	0.01499	0.00836
0.38000	-0.00049	0.00040	0.00074	0.00046	0.00000	0.00000	-0.12333	0.03611	0.07109	0.02915	0.01499	0.00836
0.38200	-0.00049	0.00040	0.00074	0.00046	-3.78840	-89.91000	-0.12333	0.03611	0.07109	0.02915	0.01499	0.00836
0.38400	-0.00074	0.00089	0.00074	0.00042	-3.87860	-89.91000	-0.14050	0.07840	0.02699	0.02878	0.02427	0.01151
0.38600	-0.00074	0.00089	0.00074	0.00042	0.00000	0.00000	-0.14050	0.07840	0.02699	0.02878	0.02427	0.01151
0.38800	-0.00074	0.00089	0.00074	0.00042	-3.87860	-90.00000	-0.14050	0.07840	0.02699	0.02878	0.02427	0.01151
0.39000	-0.00074	0.00089	0.00074	0.00042	-3.96880	-90.00000	-0.14050	0.07840	0.02699	0.02878	0.02427	0.01151
0.39200	-0.00062	0.00027	0.00093	0.00060	-3.96880	-90.00000	-0.14050	0.07840	0.02699	0.02878	0.02427	0.01151
0.39400	-0.00056	-0.00052	0.00075	0.00074	0.00000	0.00000	-0.14740	0.03467	0.01234	0.02107	0.01909	0.00923
0.39600	-0.00056	-0.00052	0.00075	0.00074	-3.87860	-89.91000	-0.14740	0.03467	0.01234	0.02107	0.01909	0.00923
0.39800	-0.00056	-0.00052	0.00075	0.00074	-3.87860	-89.82000	-0.14740	0.03467	0.01234	0.02107	0.01909	0.00923
0.40000	-0.00056	-0.00052	0.00075	0.00074	-3.78840	-89.82000	-0.14740	0.03467	0.01234	0.02107	0.01909	0.00923
0.40200	0.00183	0.00133	0.00061	0.00041	0.00000	0.00000	-0.13402	-0.08652	0.09145	0.01209	0.00925	0.00849
0.40400	0.00183	0.00133	0.00061	0.00041	-3.69820	-89.91000	-0.13402	-0.08652	0.09145	0.01209	0.00925	0.00849
0.40600	0.00183	0.00133	0.00061	0.00041	-3.60800	-89.91000	-0.13402	-0.08652	0.09145	0.01209	0.00925	0.00849
0.40800	0.00183	0.00133	0.00061	0.00041	0.00000	0.00000	-0.13402	-0.08652	0.09145	0.01209	0.00925	0.00849
0.41000	-0.00091	0.00005	0.00045	0.00024	-3.78840	-89.82000	-0.09648	-0.06327	0.04056	0.00765	0.01080	0.00775
0.41200	-0.00091	0.00005	0.00045	0.00024	-3.87860	-89.64000	-0.09648	-0.06327	0.04056	0.00765	0.01080	0.00775
0.41400	-0.00091	0.00005	0.00045	0.00024	-3.96880	-89.64000	-0.09648	-0.06327	0.04056	0.00765	0.01080	0.00775
0.41600	-0.00091	0.00005	0.00045	0.00024	0.00000	0.00000	-0.09648	-0.06327	0.04056	0.00765	0.01080	0.00775
0.41800	-0.00111	0.00152	0.00053	0.00087	-3.96880	-89.73000	-0.09648	-0.06327	0.04056	0.00765	0.01080	0.00775
0.42000	-0.00111	0.00152	0.00053	0.00087	-3.96880	-89.73000	-0.13042	-0.06111	0.03886	0.01009	0.00870	0.00645
0.42200	-0.00044	0.00038	0.00115	0.00047	-4.05900	-89.73000	-0.13042	-0.06111	0.03886	0.01009	0.00870	0.00645
0.42400	-0.00044	0.00038	0.00115	0.00047	0.00000	0.00000	-0.13042	-0.06111	0.03886	0.01009	0.00870	0.00645
0.42600	-0.00069	-0.00068	0.00069	0.00052	-3.60800	-89.73000	-0.11458	-0.10638	0.06169	0.00642	0.00731	0.00475
0.42800	-0.00069	-0.00068	0.00069	0.00052	-3.60800	-89.73000	-0.11458	-0.10638	0.06169	0.00642	0.00731	0.00475
0.43000	-0.00069	-0.00068	0.00069	0.00052	0.00000	0.00000	-0.11458	-0.10638	0.06169	0.00642	0.00731	0.00475
0.43200	-0.00069	-0.00068	0.00069	0.00052	-3.69820	-89.73000	-0.11458	-0.10638	0.06169	0.00642	0.00731	0.00475
0.43400	0.00101	0.00108	0.00053	0.00040	-3.78840	-89.82000	-0.14112	-0.03591	0.03161	0.00287	0.00999	0.00522
0.43600	0.00101	0.00108	0.00053	0.00040	-3.87860	-89.91000	-0.14112	-0.03591	0.03161	0.00287	0.00999	0.00522
0.43800	0.00101	0.00108	0.00053	0.00040	0.00000	0.00000	-0.14112	-0.03591	0.03161	0.00287	0.00999	0.00522
0.44000	0.00101	0.00108	0.00053	0.00040	-3.78840	-89.73000	-0.14112	-0.03591	0.03161	0.00287	0.00999	0.00522
0.44200	-0.00039	-0.00007	0.00045	0.00036	-3.78840	-89.73000	-0.19615	-0.12233	-0.01095	-0.00558	0.02104	0.00500
0.44400	-0.00027	0.00084	0.00063	0.00062	-3.78840	-89.64000	-0.19615	-0.12233	-0.01095	-0.00558	0.02104	0.00500
0.44600	-0.00027	0.00084	0.00063	0.00062	0.00000	0.00000	-0.19615	-0.12233	-0.01095	-0.00558	0.02104	0.00500
0.44800	-0.00027	0.00084	0.00063	0.00062	-3.69820	-89.64000	-0.19615	-0.12233	-0.01095	-0.00558	0.02104	0.00500
0.45000	-0.00027	0.00084	0.00063	0.00062	-3.69820	-89.73000	-0.19615	-0.12233	-0.01095	-0.00558	0.02104	0.00500
0.45200	-0.00084	0.00051	0.00049	0.00071	-3.69820	-89.73000	-0.20397	-0.03107	-0.03794	-0.00284	0.03362	0.00796
0.45400	-0.00084	0.00051	0.00049	0.00071	0.00000	0.00000	-0.20397	-0.03107	-0.03794	-0.00284	0.03362	0.00796
0.45600	-0.00084	0.00051	0.00049	0.00071	-3.87860	-89.64000	-0.20397	-0.03107	-0.03794	-0.00284	0.03362	0.00796
0.45800	-0.00084	0.00051	0.00049	0.00071	-3.87860	-89.64000	-0.20397	-0.03107	-0.03794	-0.00284	0.03362	0.00796
0.46000	0.00051	0.00057	0.00063	0.00100	0.00000	0.00000	-0.18288	-0.03632	-0.09361	-0.00472	0.02363	0.00765
0.46200	0.00051	0.00057	0.00063	0.00100	-3.78840	-89.55000	-0.18288	-0.03632	-0.09361	-0.00472	0.02363	0.00765
0.46400	0.00051	0.00057	0.00063	0.00100	-3.78840	-89.55000	-0.18288	-0.03632	-0.09361	-0.00472	0.02363	0.00765
0.46600	0.00051	0.00057	0.00063	0.00100	-3.69820	-89.55000	-0.18288	-0.03632	-0.09361	-0.00472	0.02363	0.00765
0.46800	-0.00027	0.00141	0.00040	0.00048	0.00000	0.00000	-0.16509	-0.03066	-0.12044	-0.00413	0.00642	0.01237
0.47000	-0.00027	0.00141	0.00040	0.00048	-3.78840	-89.73000	-0.16509	-0.03066	-0.12044	-0.00413	0.00642	0.01237
0.47200	-0.00027	0.00141	0.00040	0.00048	-3.78840	-89.64000	-0.16509	-0.03066	-0.12044	-0.00413	0.00642	0.01237
0.47400	-0.00027	0.00141	0.00040	0.00048	0.00000	0.00000	-0.16509	-0.03066	-0.12044	-0.00413	0.00642	0.01237
0.47600	-0.00057	0.00024	0.00047	0.00028	0.00000	0.00000	-0.14380	-0.00010	-0.17411	-0.00296	0.00009	0.01271
0.47800	-0.00057	0.00024	0.00047	0.00028	-3.78840	-89.64000	-0.14380	-0.00010	-0.17411	-0.00296	0.00009	0.01271
0.48000	-0.00057	0.00024	0.00047	0.00028	-3.87860	-89.64000	-0.14380	-0.00010	-0.17411	-0.00296	0.00009	0.01271
0.48200	-0.00057	0.00024	0.00047	0.00028	0.00000	0.00000	-0.14380	-0.00010	-0.17411	-0.00296	0.00009	0.01271
0.48400	-0.00057	0.00094	0.00085	0.00034	-3.87860	-89.55000	-0.10265	-0.05751	-0.19956	-0.00228	-0.00191	0.01349
0.48600	-0.00057	0.00094	0.00085	0.00034	-3.87860	-89.64000	-0.10265	-0.05751	-0.19956	-0.00228	-0.00191	0.01349
0.48800	-0.00057	0.00094	0.00085	0.00034	-3.87860	0.00000	-0.10265	-0.05751	-0.19956	-0.00228	-0.00191	0.01349
0.49000	-0.00057	0.00094	0.00085	0.00034	0.00000	-89.64000	-0.10265	-0.05751	-0.19956	-0.00228	-0.00191	0.01349
0.49200	0.00080	-0.00023	0.00062	0.00061	-3.87860	-89.64000	-0.10265	-0.05751	-0.19956	-0.00228	-0.00191	0.01349
0.49400	-0.00015	0.00221	0.00064	0.00030	-3.78840	-89.73000	-0.09535	-0.15700	-0.16316	-0.01703	-0.00241	0.01345
0.49600	-0.00015	0.00221	0.00064	0.00030	-3.78840	-89.64000	-0.09535	-0.15700	-0.16316	-0.01703	-0.00241	0.01345
0.49800	-0.00015	0.00221	0.00064	0.00030	0.00000	0.00000	-0.09535	-0.15700	-0.16316	-0.01703	-0.00241	0.01345
0.50000	-0.00015	0.00221	0.00064	0.00030	-3.78840	-89.64000	-0.09535	-0.15700	-0.16316	-0.01703	-0.00241	0.01345
0.50200	-0.00062	0.00004	0.00070	0.00012	-3.78840	-89.73000	-0.12343	-0.20309	-0.13586	-0.01897	-0.00305	0.00904
0.50400	-0.00062	0.00004	0.00070	0.00012	-3.69820	-89.64000	-0.12343	-0.20309	-0.13586	-0.01897	-0.00305	0.00904
0.50600	-0.00062	0.00004	0.00070	0.00012	-3.78840	-89.64000	-0.12343	-0.20309	-0.13586	-0.01897	-0.00305	0.00904
0.50800	-0.00062	0.00004	0.00070	0.00012	-3.60800	-89.64000	-0.12343	-0.20309	-0.13586	-0.01897	-0.00305	0.00904
0.51000	0.00004	0.00043	0.00079	0.00065	-3.60800	-89.64000	-0.09412	-0.19558	-0.07433	-0.01527	-0.00043	0.00793
0.51200	0.00004	0.00043	0.00079	0.00065	0.00000	0.00000	-0.09412	-0.19558	-0.07433	-0.01527	-0.00043	0.00793
0.51400	0.00004	0.00043	0.00079	0.00065	-3.69820	-89.64000	-0.09412	-0.19558	-0.07433	-0.01527	-0.00043	0.00793
0.51600	0.00004	0.00043	0.00079	0.00065	-3.87860	-89.73000	-0.09412	-0.19558	-0.07433	-0.01527	-0.00043	0.00793
0.51800	-0.00040	-0.00011	0.00063	0.00017	-3.87860	-89.73000	-0.07303	-0.10638	-0.03732	-0.00420	-0.00376	0.00333
0.52000	-0.00040	-0.00011	0.00063	0.00017	0.00000	0.00000	-0.07303	-0.10638	-0.03732	-0.00420	-0.00376	0.00333
0.52200	-0.00040	-0.00011	0.00063	0.00017	-3.96880	-89.82000	-0.07303	-0.10638	-0.03732	-0.00420	-0.00376	0.00333
0.52400	-0.00040	-0.00011	0.00063	0.00017	-3.78840	-89.73000	-0.07303	-0.10638	-0.03732	-0.00420	-0.00376	0.00333
0.52600	0.00080	0.00088	0.00094	0.00012	0.00000	0.00000	-0.08486	-0.00761	-0.03269	0.00077	-0.01783	0.00414
0.52800	0.00080	0.00088	0.00094	0.00012	-3.69820	-89.73000	-0.08486	-0.00761	-0.03269	0.00077	-0.01783	0.00414
0.53000	0.00080	0.00088	0.00094	0.00012	-3.69820	-89.73000	-0.08486	-0.00761	-0.03269	0.00077	-0.01783	0.00414
0.53200	0.00080	0.00088	0.00094	0.00012	-3.60800	-89.73000	-0.08486	-0.00761	-0.03269	0.00077	-0.01783	0.00414
0.53400	-0.00027	-0.00012	0.00060	0.00029	0.00000	0.00000	-0.03003	0.01245	0.06354	0.00611	-0.02690	0.00346
0.53600	-0.00027	-0.00012	0.00060	0.00029	-3.78840	-89.73000	-0.03003	0.01245	0.06354	0.00611	-0.02690	0.00346
0.53800	-0.00027	-0.00012	0.00060	0.00029	-3.69820	-89.82000	-0.03003	0.01245	0.06354	0.00611	-0.02690	0.00346
0.54000	-0.00027	-0.00012	0.00060	0.00029	-3.60800	-89.91000	-0.03003	0.01245	0.06354	0.00611	-0.02690	0.00346
0.54200	-0.00077	0.00083	0.00071	0.00079	0.00000	0.00000	-0.06429	0.04218	0.14990	0.01345	-0.02042	0.00494
0.54400	-0.00077	0.00083	0.00071	0.00079	-3.69820	-89.91000	-0.06429	0.04218	0.14990	0.01345	-0.02042	0.00494
0.54600	-0.00077	0.00083	0.00071	0.00079	-3.69820	-90.00000	-0.06429	0.04218	0.14990	0.01345	-0.02042	0.00494
0.54800	-0.00077	0.00083	0.00071	0.00079	0.00000	0.00000	-0.06429	0.04218	0.14990	0.01345	-0.02042	0.00494
0.55000	-0.00051	-0.00049	0.00073	0.00000	-3.78840	-89.91000	-0.04608	0.03508	0.21482	0.01175	-0.00558	0.00491
0.55200	-0.00051	-0.00049	0.00073	0.00000	-3.69820	-89.91000	-0.04608	0.03508	0.21482	0.01175	-0.00558	0.00491
0.55400	-0.00051	-0.00049	0.00073	0.00000	-3.69820	-89.82000	-0.04608	0.03508	0.21482	0.01175	-0.00558	0.00491
0.55600	-0.00051	-0.00049	0.00073	0.00000	0.00000	0.00000	-0.04608	0.03508	0.21482	0.01175	-0.00558	0.00491
0.55800	0.00044	0.00130	0.00064	0.00040	-3.87860	-89.91000	-0.08784	-0.03333	0.32247	0.01382	0.00308	0.00796
0.56000	0.00044	0.00130	0.00064	0.00040	-3.78840	-89.82000	-0.08784	-0.03333	0.32247	0.01382	0.00308	0.00796
0.56200	0.00044	0.00130	0.00064	0.00040	-3.87860	-89.73000	-0.08784	-0.03333	0.32247	0.01382	0.00308	0.00796
0.56400	0.00044	0.00130	0.00064	0.00040	-3.78840	-89.73000	-0.08784	-0.03333	0.32247	0.01382	0.00308	0.00796
0.56600	-0.00018	-0.00039	0.00084	0.00012	-3.78840	-89.82000	-0.08784	-0.03333	0.32247	0.01382	0.00308	0.00796
0.56800	-0.00018	-0.00039	0.00084	0.00012	-3.78840	-89.91000	-0.07550	-0.06451	0.42209	0.00969	0.00463	0.01043
0.57000	-0.00087	0.00022	0.00087	0.00019	0.00000	0.00000	-0.07550	-0.06451	0.42209	0.00969	0.00463	0.01043
0.57200	-0.00087	0.00022	0.00087	0.00019	-3.78840	-90.09000	-0.07550	-0.06451	0.42209	0.00969	0.00463	0.01043
0.57400	-0.00087	0.00022	0.00087	0.00019	-3.78840	-89.91000	-0.07550	-0.06451	0.42209	0.00969	0.00463	0.01043
0.57600	0.00010	-0.00001	0.00095	0.00060	0.00000	0.00000	-0.13618	-0.05700	0.46697	0.01832	0.01095	0.01157
0.57800	0.00010	-0.00001	0.00095	0.00060	-3.69820	-89.91000	-0.13618	-0.05700	0.46697	0.01832	0.01095	0.01157
0.58000	0.00010	-0.00001	0.00095	0.00060	-3.60800	-89.91000	-0.13618	-0.05700	0.46697	0.01832	0.01095	0.01157
0.58200	0.00010	-0.00001	0.00095	0.00060	-3.60800	-89.82000	-0.13618	-0.05700	0.46697	0.01832	0.01095	0.01157
0.58400	0.00052	-0.00029	0.00080	0.00046	0.00000	0.00000	-0.13824	-0.00905	0.49704	0.02625	0.02443	0.01398
0.58600	0.00052	-0.00029	0.00080	0.00046	-3.78840	-89.91000	-0.13824	-0.00905	0.49704	0.02625	0.02443	0.01398
0.58800	0.00052	-0.00029	0.00080	0.00046	-3.96880	-90.00000	-0.13824	-0.00905	0.49704	0.02625	0.02443	0.01398
0.59000	0.00052	-0.00029	0.00080	0.00046	-3.78840	-90.00000	-0.13824	-0.00905	0.49704	0.02625	0.02443	0.01398
0.59200	0.00038	0.00087	0.00069	-0.00003	0.00000	0.00000	-0.11510	0.02294	0.47144	0.02915	0.02674	0.01299
0.59400	0.00038	0.00087	0.00069	-0.00003	-3.87860	-89.91000	-0.11510	0.02294	0.47144	0.02915	0.02674	0.01299
0.59600	0.00038	0.00087	0.00069	-0.00003	-3.87860	-89.82000	-0.11510	0.02294	0.47144	0.02915	0.02674	0.01299
0.59800	0.00038	0.00087	0.00069	-0.00003	0.00000	0.00000	-0.11510	0.02294	0.47144	0.02915	0.02674	0.01299
0.60000	-0.00085	-0.00027	0.00063	0.00085	-3.78840	-89.91000	-0.15676	0.04218	0.46018	0.03307	0.02122	0.00950
0.60200	-0.00085	-0.00027	0.00063	0.00085	-3.78840	-89.91000	-0.15676	0.04218	0.46018	0.03307	0.02122	0.00950
0.60400	-0.00085	-0.00027	0.00063	0.00085	-3.78840	-89.91000	-0.15676	0.04218	0.46018	0.03307	0.02122	0.00950
0.60600	-0.00085	-0.00027	0.00063	0.00085	0.00000	0.00000	-0.15676	0.04218	0.46018	0.03307	0.02122	0.00950
0.60800	-0.00035	0.00079	0.00089	0.00040	-3.78840	-90.00000	-0.15676	0.04218	0.46018	0.03307	0.02122	0.00950
0.61000	-0.00035	0.00079	0.00089	0.00040	-3.78840	-89.91000	-0.13063	0.05216	0.40775	0.03335	0.02159	0.00704
0.61200	-0.00057	-0.00029	0.00069	0.00091	0.00000	0.00000	-0.13063	0.05216	0.40775	0.03335	0.02159	0.00704
0.61400	-0.00057	-0.00029	0.00069	0.00091	-3.78840	-89.91000	-0.13063	0.05216	0.40775	0.03335	0.02159	0.00704
0.61600	0.00310	-0.00060	0.00060	-0.00032	-3.87860	-89.91000	-0.15676	0.03776	0.30566	0.03270	0.02579	0.00700
0.61800	0.00310	-0.00060	0.00060	-0.00032	-3.96880	-89.91000	-0.15676	0.03776	0.30566	0.03270	0.02579	0.00700
0.62000	0.00310	-0.00060	0.00060	-0.00032	0.00000	0.00000	-0.15676	0.03776	0.30566	0.03270	0.02579	0.00700
0.62200	0.00310	-0.00060	0.00060	-0.00032	-3.87860	-89.73000	-0.15676	0.03776	0.30566	0.03270	0.02579	0.00700
0.62400	-0.00010	0.00082	0.00074	0.00037	-3.78840	-89.82000	-0.13320	-0.00905	0.21868	0.02635	0.03254	0.00355
0.62600	-0.00010	0.00082	0.00074	0.00037	-3.78840	-89.82000	-0.13320	-0.00905	0.21868	0.02635	0.03254	0.00355
0.62800	-0.00010	0.00082	0.00074	0.00037	0.00000	0.00000	-0.13320	-0.00905	0.21868	0.02635	0.03254	0.00355
0.63000	-0.00010	0.00082	0.00074	0.00037	-3.78840	-89.82000	-0.13320	-0.00905	0.21868	0.02635	0.03254	0.00355
0.63200	-0.00065	0.00004	0.00079	0.00018	-3.87860	-89.82000	-0.15192	-0.04815	0.16424	0.02088	0.02054	0.00238
0.63400	-0.00065	0.00004	0.00079	0.00018	0.00000	0.00000	-0.15192	-0.04815	0.16424	0.02088	0.02054	0.00238
0.63600	-0.00065	0.00004	0.00079	0.00018	-3.87860	-89.82000	-0.15192	-0.04815	0.16424	0.02088	0.02054	0.00238
0.63800	-0.00065	0.00004	0.00079	0.00018	-3.96880	-89.82000	-0.15192	-0.04815	0.16424	0.02088	0.02054	0.00238
0.64000	-0.00041	0.00022	0.00079	0.00036	-3.96880	-89.82000	-0.12868	-0.04907	0.04087	0.01546	0.01712	0.00525
0.64200	-0.00041	0.00022	0.00079	0.00036	0.00000	0.00000	-0.12868	-0.04907	0.04087	0.01546	0.01712	0.00525
0.64400	-0.00041	0.00022	0.00079	0.00036	-3.87860	-89.73000	-0.12868	-0.04907	0.04087	0.01546	0.01712	0.00525
0.64600	-0.00041	0.00022	0.00079	0.00036	-3.87860	-89.64000	-0.12868	-0.04907	0.04087	0.01546	0.01712	0.00525
0.64800	0.00099	0.00046	0.00069	0.00099	-3.87860	-89.64000	-0.10996	-0.02377	-0.10271	0.01515	0.01943	0.00605
0.65000	0.00099	0.00046	0.00069	0.00099	0.00000	0.00000	-0.10996	-0.02377	-0.10271	0.01515	0.01943	0.00605
0.65200	0.00099	0.00046	0.00069	0.00099	-3.78840	-89.64000	-0.10996	-0.02377	-0.10271	0.01515	0.01943	0.00605
0.65400	0.00099	0.00046	0.00069	0.00099	-3.78840	-89.55000	-0.10996	-0.02377	-0.10271	0.01515	0.01943	0.00605
0.65600	-0.00033	0.00033	0.00040	0.00087	-3.78840	-89.55000	-0.10996	-0.02377	-0.10271	0.01515	0.01943	0.00605
0.65800	-0.00006	-0.00046	0.00062	0.00061	0.00000	0.00000	-0.12631	-0.01975	-0.19431	0.01172	0.00611	0.01247
0.66000	-0.00006	-0.00046	0.00062	0.00061	-3.78840	-89.55000	-0.12631	-0.01975	-0.19431	0.01172	0.00611	0.01247
0.66200	-0.00006	-0.00046	0.00062	0.00061	-3.87860	-89.64000	-0.12631	-0.01975	-0.19431	0.01172	0.00611	0.01247
0.66400	-0.00006	-0.00046	0.00062	0.00061	-3.96880	-89.64000	-0.12631	-0.01975	-0.19431	0.01172	0.00611	0.01247
0.66600	-0.00090	0.00073	0.00072	0.00054	0.00000	0.00000	-0.05955	0.03570	-0.29687	0.01823	-0.00034	0.01151
0.66800	-0.00090	0.00073	0.00072	0.00054	-3.60800	-89.64000	-0.05955	0.03570	-0.29687	0.01823	-0.00034	0.01151
0.67000	-0.00090	0.00073	0.00072	0.00054	-3.69820	-89.64000	-0.05955	0.03570	-0.29687	0.01823	-0.00034	0.01151
0.67200	-0.00090	0.00073	0.00072	0.00054	0.00000	0.00000	-0.05955	0.03570	-0.29687	0.01823	-0.00034	0.01151
0.67400	-0.00062	-0.00015	0.00092	0.00009	-3.78840	-89.55000	-0.08362	-0.01924	-0.34930	0.01021	-0.00657	0.01700
0.67600	-0.00062	-0.00015	0.00092	0.00009	-3.69820	-89.55000	-0.08362	-0.01924	-0.34930	0.01021	-0.00657	0.01700
0.67800	-0.00062	-0.00015	0.00092	0.00009	-3.69820	-89.64000	-0.08362	-0.01924	-0.34930	0.01021	-0.00657	0.01700
0.68000	-0.00062	-0.00015	0.00092	0.00009	0.00000	0.00000	-0.08362	-0.01924	-0.34930	0.01021	-0.00657	0.01700
0.68200	0.00048	0.00132	0.00068	0.00035	-3.60800	-89.55000	-0.08249	-0.02798	-0.38878	0.00679	-0.00071	0.01518
0.68400	-0.00046	0.00033	0.00072	0.00079	-3.60800	-89.46000	-0.08249	-0.02798	-0.38878	0.00679	-0.00071	0.01518
0.68600	-0.00046	0.00033	0.00072	0.00079	0.00000	0.00000	-0.08249	-0.02798	-0.38878	0.00679	-0.00071	0.01518
0.68800	-0.00046	0.00033	0.00072	0.00079	-3.60800	-89.46000	-0.08249	-0.02798	-0.38878	0.00679	-0.00071	0.01518
0.69000	-0.00046	0.00033	0.00072	0.00079	-3.51780	-89.55000	-0.08249	-0.02798	-0.38878	0.00679	-0.00071	0.01518
0.69200	-0.00022	0.00011	0.00088	0.00078	-3.51780	-89.37000	-0.08249	-0.02798	-0.38878	0.00679	-0.00071	0.01518
0.69400	-0.00022	0.00011	0.00088	0.00078	0.00000	0.00000	-0.04464	-0.14465	-0.36565	-0.00265	0.00003	0.01367
0.69600	-0.00061	0.00148	0.00037	0.00033	-3.60800	-89.37000	-0.04464	-0.14465	-0.36565	-0.00265	0.00003	0.01367
0.69800	-0.00061	0.00148	0.00037	0.00033	-3.69820	-89.46000	-0.04464	-0.14465	-0.36565	-0.00265	0.00003	0.01367
0.70000	-0.00061	0.00148	0.00037	0.00033	-3.78840	-89.46000	-0.04464	-0.14465	-0.36565	-0.00265	0.00003	0.01367
0.70200	-0.00061	0.00148	0.00037	0.00033	0.00000	0.00000	-0.04464	-0.14465	-0.36565	-0.00265	0.00003	0.01367
0.70400	-0.00074	0.00012	0.00079	0.00013	-3.60800	-89.46000	-0.11212	-0.16111	-0.25446	-0.00947	0.00093	0.00987
0.70600	-0.00074	0.00012	0.00079	0.00013	-3.51780	-89.46000	-0.11212	-0.16111	-0.25446	-0.00947	0.00093	0.00987
0.70800	-0.00074	0.00012	0.00079	0.00013	0.00000	0.00000	-0.11212	-0.16111	-0.25446	-0.00947	0.00093	0.00987
0.71000	-0.00074	0.00012	0.00079	0.00013	-3.60800	-89.46000	-0.11212	-0.16111	-0.25446	-0.00947	0.00093	0.00987
0.71200	0.00100	0.00067	0.00054	0.00018	-3.69820	-89.64000	-0.10440	-0.07922	-0.16763	0.00068	0.00635	0.00654
0.71400	0.00100	0.00067	0.00054	0.00018	-3.78840	-89.64000	-0.10440	-0.07922	-0.16763	0.00068	0.00635	0.00654
0.71600	0.00100	0.00067	0.00054	0.00018	0.00000	0.00000	-0.10440	-0.07922	-0.16763	0.00068	0.00635	0.00654
0.71800	0.00100	0.00067	0.00054	0.00018	-3.87860	-89.64000	-0.10440	-0.07922	-0.16763	0.00068	0.00635	0.00654
0.72000	-0.00040	0.00010	0.00087	0.00025	-3.78840	-89.64000	-0.13053	-0.06368	-0.05876	0.00552	0.01326	0.00497
0.72200	-0.00040	0.00010	0.00087	0.00025	-3.78840	-89.64000	-0.13053	-0.06368	-0.05876	0.00552	0.01326	0.00497
0.72400	-0.00040	0.00010	0.00087	0.00025	0.00000	0.00000	-0.13053	-0.06368	-0.05876	0.00552	0.01326	0.00497
0.72600	-0.00040	0.00010	0.00087	0.00025	-3.69820	-89.64000	-0.13053	-0.06368	-0.05876	0.00552	0.01326	0.00497
0.72800	-0.00069	0.00087	0.00092	0.00032	0.00000	0.00000	-0.16087	0.03107	-0.00370	0.01141	0.01980	0.00478
0.73000	-0.00024	0.00093	0.00073	0.00096	0.00000	0.00000	-0.16087	0.03107	-0.00370	0.01141	0.01980	0.00478
0.73200	-0.00024	0.00093	0.00073	0.00096	-3.87860	-89.73000	-0.16087	0.03107	-0.00370	0.01141	0.01980	0.00478
0.73400	-0.00024	0.00093	0.00073	0.00096	-3.78840	-89.73000	-0.16087	0.03107	-0.00370	0.01141	0.01980	0.00478
0.73600	-0.00024	0.00093	0.00073	0.00096	-3.78840	-89.82000	-0.16087	0.03107	-0.00370	0.01141	0.01980	0.00478
0.73800	-0.00093	-0.00027	0.00087	0.00074	0.00000	0.00000	-0.19738	-0.03158	0.08883	0.01188	0.02850	0.00349
0.74000	-0.00093	-0.00027	0.00087	0.00074	-3.78840	-89.91000	-0.19738	-0.03158	0.08883	0.01188	0.02850	0.00349
0.74200	-0.00093	-0.00027	0.00087	0.00074	-3.78840	-89.82000	-0.19738	-0.03158	0.08883	0.01188	0.02850	0.00349
0.74400	-0.00093	-0.00027	0.00087	0.00074	-3.78840	-89.73000	-0.19738	-0.03158	0.08883	0.01188	0.02850	0.00349
0.74600	0.00146	0.00093	0.00086	0.00050	0.00000	0.00000	-0.25745	0.00772	0.18876	0.01678	0.04947	0.00808
0.74800	0.00146	0.00093	0.00086	0.00050	-3.78840	-89.82000	-0.25745	0.00772	0.18876	0.01678	0.04947	0.00808
0.75000	0.00146	0.00093	0.00086	0.00050	0.00000	0.00000	-0.25745	0.00772	0.18876	0.01678	0.04947	0.00808
0.75200	0.00146	0.00093	0.00086	0.00050	0.00000	-89.73000	-0.25745	0.00772	0.18876	0.01678	0.04947	0.00808
0.75400	-0.00026	-0.00067	0.00077	0.00034	-3.87860	-89.73000	-0.22279	0.03282	0.25985	0.02085	0.05836	0.00879
0.75600	-0.00026	-0.00067	0.00077	0.00034	-3.87860	-89.73000	-0.22279	0.03282	0.25985	0.02085	0.05836	0.00879
0.75800	-0.00026	-0.00067	0.00077	0.00034	0.00000	0.00000	-0.22279	0.03282	0.25985	0.02085	0.05836	0.00879
0.76000	-0.00026	-0.00067	0.00077	0.00034	0.00000	0.00000	-0.22279	0.03282	0.25985	0.02085	0.05836	0.00879
0.76200	-0.00077	0.00056	0.00070	0.00036	-3.87860	-89.82000	-0.24851	-0.07768	0.33974	0.01530	0.04633	0.01114
0.76400	-0.00077	0.00056	0.00070	0.00036	-3.78840	-89.82000	-0.24851	-0.07768	0.33974	0.01530	0.04633	0.01114
0.76600	-0.00077	0.00056	0.00070	0.00036	-3.87860	-89.82000	-0.24851	-0.07768	0.33974	0.01530	0.04633	0.01114
0.76800	-0.00077	0.00056	0.00070	0.00036	0.00000	0.00000	-0.24851	-0.07768	0.33974	0.01530	0.04633	0.01114
0.77000	-0.00056	-0.00018	0.00074	0.00008	-3.87860	-89.82000	-0.19522	0.02819	0.39649	0.02045	0.03791	0.01355
0.77200	-0.00056	-0.00018	0.00074	0.00008	-3.87860	-89.82000	-0.19522	0.02819	0.39649	0.02045	0.03791	0.01355
0.77400	-0.00056	-0.00018	0.00074	0.00008	0.00000	0.00000	-0.19522	0.02819	0.39649	0.02045	0.03791	0.01355
0.77600	-0.00056	-0.00018	0.00074	0.00008	-3.78840	-89.91000	-0.19522	0.02819	0.39649	0.02045	0.03791	0.01355
0.77800	0.00049	0.00134	0.00062	0.00022	-3.78840	-90.00000	-0.13845	0.03724	0.38955	0.02656	0.02905	0.01540
0.78000	0.00049	0.00134	0.00062	0.00022	-3.96880	-89.91000	-0.13845	0.03724	0.38955	0.02656	0.02905	0.01540
0.78200	0.00049	0.00134	0.00062	0.00022	0.00000	0.00000	-0.13845	0.03724	0.38955	0.02656	0.02905	0.01540
0.78400	0.00049	0.00134	0.00062	0.00022	-3.87860	-89.91000	-0.13845	0.03724	0.38955	0.02656	0.02905	0.01540
0.78600	-0.00082	-0.00005	0.00061	0.00037	-3.87860	-89.91000	-0.13773	0.00453	0.36256	0.02783	0.02526	0.01744
0.78800	-0.00082	-0.00005	0.00061	0.00037	-3.87860	-89.91000	-0.13773	0.00453	0.36256	0.02783	0.02526	0.01744
0.79000	-0.00082	-0.00005	0.00061	0.00037	0.00000	0.00000	-0.13773	0.00453	0.36256	0.02783	0.02526	0.01744
0.79200	-0.00082	-0.00005	0.00061	0.00037	-3.87860	-89.91000	-0.13773	0.00453	0.36256	0.02783	0.02526	0.01744
0.79400	-0.00068	0.00145	0.00086	0.00065	-3.78840	-89.91000	-0.14164	0.07356	0.32740	0.02477	0.02104	0.01469
0.79600	-0.00068	0.00145	0.00086	0.00065	0.00000	0.00000	-0.14164	0.07356	0.32740	0.02477	0.02104	0.01469
0.79800	-0.00068	0.00145	0.00086	0.00065	-3.78840	-89.82000	-0.14164	0.07356	0.32740	0.02477	0.02104	0.01469
0.80000	-0.00068	0.00145	0.00086	0.00065	-3.60800	-89.91000	-0.14164	0.07356	0.32740	0.02477	0.02104	0.01469
0.80200	-0.00024	-0.00018	0.00089	0.00031	-3.60800	-89.91000	-0.10924	0.05998	0.27636	0.02820	0.01789	0.01321
0.80400	-0.00024	-0.00018	0.00089	0.00031	-3.69820	-90.00000	-0.10924	0.05998	0.27636	0.02820	0.01789	0.01321
0.80600	-0.00024	-0.00018	0.00089	0.00031	-3.69820	-90.00000	-0.10924	0.05998	0.27636	0.02820	0.01789	0.01321
0.80800	-0.00024	-0.00018	0.00089	0.00031	-3.69820	-89.91000	-0.10924	0.05998	0.27636	0.02820	0.01789	0.01321
0.81000	0.00040	0.00087	0.00034	0.00013	0.00000	0.00000	-0.08805	-0.03817	0.16563	0.02079	0.02319	0.01021
0.81200	0.00040	0.00087	0.00034	0.00013	0.00000	0.00000	-0.08805	-0.03817	0.16563	0.02079	0.02319	0.01021
0.81400	0.00040	0.00087	0.00034	0.00013	-3.78840	-90.00000	-0.08805	-0.03817	0.16563	0.02079	0.02319	0.01021
0.81600	0.00040	0.00087	0.00034	0.00013	-3.87860	-89.82000	-0.08805	-0.03817	0.16563	0.02079	0.02319	0.01021
0.81800	-0.00066	-0.00038	0.00080	0.00068	0.00000	0.00000	-0.17815	0.02027	0.07233	0.01570	0.01592	0.00821
0.82000	-0.00066	-0.00038	0.00080	0.00068	-3.78840	-89.73000	-0.17815	0.02027	0.07233	0.01570	0.01592	0.00821
0.82200	-0.00066	-0.00038	0.00080	0.00068	-3.69820	-89.55000	-0.17815	0.02027	0.07233	0.01570	0.01592	0.00821
0.82400	-0.00066	-0.00038	0.00080	0.00068	-3.60800	-89.64000	-0.17815	0.02027	0.07233	0.01570	0.01592	0.00821
0.82600	-0.00051	0.00148	0.00074	0.00029	0.00000	0.00000	-0.09628	-0.07757	0.02683	0.01070	0.01866	0.00673
0.82800	-0.00051	0.00148	0.00074	0.00029	-3.69820	-89.73000	-0.09628	-0.07757	0.02683	0.01070	0.01866	0.00673
0.83000	-0.00051	0.00148	0.00074	0.00029	-3.69820	-89.73000	-0.09628	-0.07757	0.02683	0.01070	0.01866	0.00673
0.83200	-0.00051	0.00148	0.00074	0.00029	-3.78840	-89.73000	-0.09628	-0.07757	0.02683	0.01070	0.01866	0.00673
0.83400	-0.00040	0.00000	0.00106	0.00009	0.00000	0.00000	-0.09628	-0.07757	0.02683	0.01070	0.01866	0.00673
0.83600	0.00221	0.00295	0.00063	-0.00003	-3.78840	-89.64000	-0.10594	-0.12963	0.01727	0.00407	0.01339	0.00537
0.83800	0.00221	0.00295	0.00063	-0.00003	0.00000	0.00000	-0.10594	-0.12963	0.01727	0.00407	0.01339	0.00537
0.84000	0.00221	0.00295	0.00063	-0.00003	0.00000	0.00000	-0.10594	-0.12963	0.01727	0.00407	0.01339	0.00537
0.84200	0.00221	0.00295	0.00063	-0.00003	-3.78840	-89.55000	-0.10594	-0.12963	0.01727	0.00407	0.01339	0.00537
0.84400	-0.00055	0.00055	0.00056	0.00018	-3.69820	-89.73000	-0.10594	-0.12963	0.01727	0.00407	0.01339	0.00537
0.84600	-0.00079	-0.00035	0.00083	0.00103	-3.60800	-89.73000	-0.03826	-0.03765	0.04241	0.01037	-0.01009	0.00265
0.84800	-0.00079	-0.00035	0.00083	0.00103	-3.51780	-89.64000	-0.03826	-0.03765	0.04241	0.01037	-0.01009	0.00265
0.85000	-0.00079	-0.00035	0.00083	0.00103	-3.60800	-89.64000	-0.03826	-0.03765	0.04241	0.01037	-0.01009	0.00265
0.85200	-0.00079	-0.00035	0.00083	0.00103	-3.60800	-89.64000	-0.03826	-0.03765	0.04241	0.01037	-0.01009	0.00265
0.85400	-0.00038	0.00095	0.00059	0.00046	-3.69820	-89.64000	0.01533	-0.16605	0.08035	-0.00500	-0.02221	0.00410
0.85600	-0.00038	0.00095	0.00059	0.00046	-3.69820	-89.82000	0.01533	-0.16605	0.08035	-0.00500	-0.02221	0.00410
0.85800	-0.00038	0.00095	0.00059	0.00046	-3.69820	-89.73000	0.01533	-0.16605	0.08035	-0.00500	-0.02221	0.00410
0.86000	-0.00038	0.00095	0.00059	0.00046	0.00000	0.00000	0.01533	-0.16605	0.08035	-0.00500	-0.02221	0.00410
0.86200	-0.00057	-0.00057	0.00090	0.00027	0.00000	0.00000	0.01533	-0.16605	0.08035	-0.00500	-0.02221	0.00410
0.86400	0.00116	-0.00044	0.00071	-0.00029	-3.78840	-89.73000	0.03137	-0.04516	0.06338	0.00160	-0.03269	0.00753
0.86600	0.00116	-0.00044	0.00071	-0.00029	-3.69820	-89.73000	0.03137	-0.04516	0.06338	0.00160	-0.03269	0.00753
0.86800	0.00116	-0.00044	0.00071	-0.00029	-3.69820	-89.55000	0.03137	-0.04516	0.06338	0.00160	-0.03269	0.00753
0.87000	0.00116	-0.00044	0.00071	-0.00029	0.00000	0.00000	0.03137	-0.04516	0.06338	0.00160	-0.03269	0.00753
0.87200	0.00041	0.00071	0.00046	0.00063	-3.51780	-89.64000	0.02705	-0.12644	0.11844	-0.00241	-0.03131	0.00923
0.87400	0.00041	0.00071	0.00046	0.00063	-3.51780	-89.82000	0.02705	-0.12644	0.11844	-0.00241	-0.03131	0.00923
0.87600	0.00041	0.00071	0.00046	0.00063	-3.69820	-89.82000	0.02705	-0.12644	0.11844	-0.00241	-0.03131	0.00923
0.87800	0.00041	0.00071	0.00046	0.00063	0.00000	0.00000	0.02705	-0.12644	0.11844	-0.00241	-0.03131	0.00923
0.88000	0.00004	-0.00065	0.00091	0.00064	-3.78840	-89.82000	-0.00936	-0.08117	0.15545	-0.00145	-0.01690	0.00987
0.88200	0.00004	-0.00065	0.00091	0.00064	-3.69820	-89.91000	-0.00936	-0.08117	0.15545	-0.00145	-0.01690	0.00987
0.88400	0.00004	-0.00065	0.00091	0.00064	0.00000	0.00000	-0.00936	-0.08117	0.15545	-0.00145	-0.01690	0.00987
0.88600	0.00004	-0.00065	0.00091	0.00064	-3.69820	-89.91000	-0.00936	-0.08117	0.15545	-0.00145	-0.01690	0.00987
0.88800	-0.00039	0.00107	0.00062	0.00028	-3.60800	-89.91000	-0.08167	0.01739	0.15591	0.00515	-0.00275	0.01327
0.89000	-0.00039	0.00107	0.00062	0.00028	-3.51780	-89.82000	-0.08167	0.01739	0.15591	0.00515	-0.00275	0.01327
0.89200	-0.00039	0.00107	0.00062	0.00028	0.00000	0.00000	-0.08167	0.01739	0.15591	0.00515	-0.00275	0.01327
0.89400	-0.00039	0.00107	0.00062	0.00028	-3.69820	-89.91000	-0.08167	0.01739	0.15591	0.00515	-0.00275	0.01327
0.89600	0.00004	0.00005	0.00082	0.00044	-3.69820	-89.91000	-0.13577	-0.08549	0.21282	0.00074	0.02286	0.01379
0.89800	0.00004	0.00005	0.00082	0.00044	-3.69820	-89.73000	-0.13577	-0.08549	0.21282	0.00074	0.02286	0.01379
0.90000	0.00004	0.00005	0.00082	0.00044	0.00000	0.00000	-0.13577	-0.08549	0.21282	0.00074	0.02286	0.01379
0.90200	0.00004	0.00005	0.00082	0.00044	-3.78840	-89.73000	-0.13577	-0.08549	0.21282	0.00074	0.02286	0.01379
0.90400	-0.00013	0.00133	0.00051	0.00057	-3.78840	-89.64000	-0.21497	0.00165	0.19478	0.00509	0.04179	0.01494
0.90600	-0.00013	0.00133	0.00051	0.00057	0.00000	0.00000	-0.21497	0.00165	0.19478	0.00509	0.04179	0.01494
0.90800	-0.00013	0.00133	0.00051	0.00057	-3.78840	-89.64000	-0.21497	0.00165	0.19478	0.00509	0.04179	0.01494
0.91000	-0.00013	0.00133	0.00051	0.00057	-3.69820	-89.73000	-0.21497	0.00165	0.19478	0.00509	0.04179	0.01494
0.91200	-0.00038	0.00039	0.00059	0.00034	-3.69820	-89.73000	-0.26352	0.02366	0.23395	0.00922	0.05234	0.01367
0.91400	-0.00038	0.00039	0.00059	0.00034	0.00000	0.00000	-0.26352	0.02366	0.23395	0.00922	0.05234	0.01367
0.91600	-0.00038	0.00039	0.00059	0.00034	-3.96880	-89.82000	-0.26352	0.02366	0.23395	0.00922	0.05234	0.01367
0.91800	-0.00038	0.00039	0.00059	0.00034	-3.87860	-89.91000	-0.26352	0.02366	0.23395	0.00922	0.05234	0.01367
0.92000	-0.00032	0.00132	0.00090	0.00008	-3.78840	-90.00000	-0.27309	-0.03158	0.23009	0.00966	0.06853	0.01234
0.92200	-0.00032	0.00132	0.00090	0.00008	0.00000	0.00000	-0.27309	-0.03158	0.23009	0.00966	0.06853	0.01234
0.92400	-0.00032	0.00132	0.00090	0.00008	-3.78840	-90.09000	-0.27309	-0.03158	0.23009	0.00966	0.06853	0.01234
0.92600	-0.00032	0.00132	0.00090	0.00008	-3.87860	-90.00000	-0.27309	-0.03158	0.23009	0.00966	0.06853	0.01234
0.92800	-0.00021	-0.00030	0.00100	0.00018	0.00000	0.00000	-0.28883	0.03704	0.18074	0.01863	0.06181	0.01197
0.93000	0.00049	0.00213	0.00079	-0.00045	-3.87860	-90.00000	-0.28883	0.03704	0.18074	0.01863	0.06181	0.01197
0.93200	0.00049	0.00213	0.00079	-0.00045	-3.96880	-89.82000	-0.28883	0.03704	0.18074	0.01863	0.06181	0.01197
0.93400	0.00049	0.00213	0.00079	-0.00045	-4.05900	-89.91000	-0.28883	0.03704	0.18074	0.01863	0.06181	0.01197
0.93600	0.00049	0.00213	0.00079	-0.00045	0.00000	0.00000	-0.28883	0.03704	0.18074	0.01863	0.06181	0.01197
0.93800	-0.00016	0.00018	0.00068	0.00032	-3.96880	-89.82000	-0.25149	-0.04784	0.12091	0.01308	0.05567	0.00830
0.94000	-0.00016	0.00018	0.00068	0.00032	-3.96880	-89.73000	-0.25149	-0.04784	0.12091	0.01308	0.05567	0.00830
0.94200	-0.00016	0.00018	0.00068	0.00032	-3.96880	-89.73000	-0.25149	-0.04784	0.12091	0.01308	0.05567	0.00830
0.94400	-0.00016	0.00018	0.00068	0.00032	0.00000	0.00000	-0.25149	-0.04784	0.12091	0.01308	0.05567	0.00830
0.94600	-0.00062	0.00074	0.00097	0.00072	-3.87860	-89.73000	-0.25149	-0.04784	0.12091	0.01185	0.05465	0.00256
0.94800	-0.00022	0.00134	0.00077	0.00109	-3.87860	-89.73000	-0.21107	-0.11708	0.03624	0.01185	0.05465	0.00256
0.95000	-0.00022	0.00134	0.00077	0.00109	-3.96880	-89.82000	-0.21107	-0.11708	0.03624	0.01185	0.05465	0.00256
0.95200	-0.00022	0.00134	0.00077	0.00109	0.00000	0.00000	-0.21107	-0.11708	0.03624	0.01185	0.05465	0.00256
0.95400	-0.00022	0.00134	0.00077	0.00109	-3.96880	-89.73000	-0.21107	-0.11708	0.03624	0.01185	0.05465	0.00256
0.95600	-0.00052	-0.00017	0.00070	0.00079	-4.05900	-89.73000	-0.19656	-0.07737	-0.05444	0.01256	0.04426	0.00287
0.95800	-0.00052	-0.00017	0.00070	0.00079	0.00000	0.00000	-0.19656	-0.07737	-0.05444	0.01256	0.04426	0.00287
0.96000	-0.00052	-0.00017	0.00070	0.00079	-3.96880	-89.55000	-0.19656	-0.07737	-0.05444	0.01256	0.04426	0.00287
0.96200	-0.00052	-0.00017	0.00070	0.00079	-3.87860	-89.64000	-0.19656	-0.07737	-0.05444	0.01256	0.04426	0.00287
0.96400	0.00116	0.00121	0.00059	-0.00004	-3.78840	-89.64000	-0.18370	-0.09167	-0.10132	0.01450	0.03458	0.00404
0.96600	0.00116	0.00121	0.00059	-0.00004	0.00000	0.00000	-0.18370	-0.09167	-0.10132	0.01450	0.03458	0.00404
0.96800	0.00116	0.00121	0.00059	-0.00004	-3.78840	-89.64000	-0.18370	-0.09167	-0.10132	0.01450	0.03458	0.00404
0.97000	0.00116	0.00121	0.00059	-0.00004	-3.78840	-89.73000	-0.18370	-0.09167	-0.10132	0.01450	0.03458	0.00404
0.97200	-0.00012	0.00017	0.00078	-0.00000	-3.87860	-89.73000	-0.13032	-0.02932	-0.17426	0.01900	0.02245	0.00188
0.97400	-0.00012	0.00017	0.00078	-0.00000	-3.87860	-89.73000	-0.13032	-0.02932	-0.17426	0.01900	0.02245	0.00188
0.97600	-0.00012	0.00017	0.00078	-0.00000	-3.87860	-89.73000	-0.13032	-0.02932	-0.17426	0.01900	0.02245	0.00188
0.97800	-0.00012	0.00017	0.00078	-0.00000	-3.87860	-89.64000	-0.13032	-0.02932	-0.17426	0.01900	0.02245	0.00188
0.98000	-0.00129	0.00107	0.00038	0.00068	0.00000	0.00000	-0.12600	0.02479	-0.22500	0.02048	0.01243	0.00775
0.98200	-0.00018	0.00013	0.00091	0.00112	-3.96880	-89.55000	-0.12600	0.02479	-0.22500	0.02048	0.01243	0.00775
0.98400	-0.00018	0.00013	0.00091	0.00112	-3.87860	-89.46000	-0.12600	0.02479	-0.22500	0.02048	0.01243	0.00775
0.98600	-0.00018	0.00013	0.00091	0.00112	-3.87860	-89.55000	-0.12600	0.02479	-0.22500	0.02048	0.01243	0.00775
0.98800	-0.00018	0.00013	0.00091	0.00112	0.00000	0.00000	-0.12600	0.02479	-0.22500	0.02048	0.01243	0.00775
0.99000	0.00040	-0.00000	0.00099	0.00059	-3.87860	-89.55000	-0.08249	0.02654	-0.23287	0.02042	0.00987	0.00917
0.99200	0.00040	-0.00000	0.00099	0.00059	-3.96880	-89.55000	-0.08249	0.02654	-0.23287	0.02042	0.00987	0.00917
0.99400	0.00040	-0.00000	0.00099	0.00059	-3.96880	-89.55000	-0.08249	0.02654	-0.23287	0.02042	0.00987	0.00917
0.99600	0.00040	-0.00000	0.00099	0.00059	0.00000	0.00000	-0.08249	0.02654	-0.23287	0.02042	0.00987	0.00917
0.99800	0.00039	0.00118	0.00064	0.00056	-3.78840	-89.55000	-0.08362	0.02202	-0.21266	0.01620	-0.00031	0.01179
1.00000	0.00039	0.00118	0.00064	0.00056	-3.69820	-89.55000	-0.08362	0.02202	-0.21266	0.01620	-0.00031	0.01179
1.00200	0.00039	0.00118	0.00064	0.00056	-3.69820	-89.55000	-0.08362	0.02202	-0.21266	0.01620	-0.00031	0.01179
1.00400	0.00039	0.00118	0.00064	0.00056	-3.51780	-89.55000	-0.08362	0.02202	-0.21266	0.01620	-0.00031	0.01179
1.00600	-0.00067	-0.00071	0.00064	0.00087	-3.60800	-89.55000	-0.05894	-0.00957	-0.15144	0.00962	-0.00623	0.01632
1.00800	-0.00067	-0.00071	0.00064	0.00087	-3.69820	-89.55000	-0.05894	-0.00957	-0.15144	0.00962	-0.00623	0.01632
1.01000	-0.00067	-0.00071	0.00064	0.00087	0.00000	0.00000	-0.05894	-0.00957	-0.15144	0.00962	-0.00623	0.01632
1.01200	-0.00067	-0.00071	0.00064	0.00087	-3.78840	-89.64000	-0.05894	-0.00957	-0.15144	0.00962	-0.00623	0.01632
1.01400	-0.00090	0.00073	0.00063	0.00037	-3.78840	-89.64000	-0.05894	-0.00957	-0.15144	0.00962	-0.00623	0.01632
1.01600	-0.00043	-0.00030	0.00036	-0.00024	-3.78840	-89.64000	-0.01533	-0.02490	-0.13895	0.00956	-0.01342	0.01524
1.01800	-0.00043	-0.00030	0.00036	-0.00024	0.00000	0.00000	-0.01533	-0.02490	-0.13895	0.00956	-0.01342	0.01524
1.02000	-0.00043	-0.00030	0.00036	-0.00024	-3.69820	-89.64000	-0.01533	-0.02490	-0.13895	0.00956	-0.01342	0.01524
1.02200	-0.00043	-0.00030	0.00036	-0.00024	0.00000	0.00000	-0.01533	-0.02490	-0.13895	0.00956	-0.01342	0.01524
1.02400	0.00028	0.00044	0.00058	0.00032	0.00000	0.00000	-0.01625	0.00998	-0.07587	0.01546	-0.02171	0.01444
1.02600	0.00028	0.00044	0.00058	0.00032	-3.69820	-89.73000	-0.01625	0.00998	-0.07587	0.01546	-0.02171	0.01444
1.02800	0.00028	0.00044	0.00058	0.00032	-3.60800	-89.73000	-0.01625	0.00998	-0.07587	0.01546	-0.02171	0.01444
1.03000	0.00028	0.00044	0.00058	0.00032	-3.60800	-89.73000	-0.01625	0.00998	-0.07587	0.01546	-0.02171	0.01444
1.03200	-0.00041	0.00005	0.00082	0.00044	0.00000	0.00000	0.02397	-0.02037	0.04164	0.01299	-0.01610	0.01290
1.03400	-0.00041	0.00005	0.00082	0.00044	-3.69820	-89.64000	0.02397	-0.02037	0.04164	0.01299	-0.01610	0.01290
1.03600	-0.00041	0.00005	0.00082	0.00044	-3.78840	-89.73000	0.02397	-0.02037	0.04164	0.01299	-0.01610	0.01290
1.03800	-0.00041	0.00005	0.00082	0.00044	-3.69820	-89.64000	0.02397	-0.02037	0.04164	0.01299	-0.01610	0.01290
1.04000	-0.00108	0.00037	0.00064	0.00082	0.00000	0.00000	0.02397	-0.02037	0.04164	0.01299	-0.01610	0.01290
1.04200	-0.00032	0.00095	0.00045	0.00091	-3.60800	-89.46000	-0.07066	-0.05196	0.14203	0.00731	-0.01191	0.01034
1.04400	-0.00032	0.00095	0.00045	0.00091	-3.69820	-89.55000	-0.07066	-0.05196	0.14203	0.00731	-0.01191	0.01034
1.04600	-0.00032	0.00095	0.00045	0.00091	0.00000	0.00000	-0.07066	-0.05196	0.14203	0.00731	-0.01191	0.01034
1.04800	-0.00032	0.00095	0.00045	0.00091	-3.78840	-89.64000	-0.07066	-0.05196	0.14203	0.00731	-0.01191	0.01034
1.05000	-0.00033	-0.00009	0.00064	0.00063	-3.69820	-89.73000	-0.11489	-0.07027	0.26587	0.00558	0.02030	0.00435
1.05200	0.00128	-0.00001	0.00065	-0.00011	-3.78840	-89.73000	-0.11489	-0.07027	0.26587	0.00558	0.02030	0.00435
1.05400	0.00128	-0.00001	0.00065	-0.00011	0.00000	0.00000	-0.11489	-0.07027	0.26587	0.00558	0.02030	0.00435
1.05600	0.00128	-0.00001	0.00065	-0.00011	-3.87860	-89.82000	-0.11489	-0.07027	0.26587	0.00558	0.02030	0.00435
1.05800	0.00128	-0.00001	0.00065	-0.00011	-3.78840	-89.91000	-0.11489	-0.07027	0.26587	0.00558	0.02030	0.00435
1.06000	0.00077	0.00118	0.00058	0.00004	-3.78840	-89.82000	-0.18278	-0.06420	0.35763	0.01024	0.03840	0.00204
1.06200	0.00077	0.00118	0.00058	0.00004	0.00000	0.00000	-0.18278	-0.06420	0.35763	0.01024	0.03840	0.00204
1.06400	0.00077	0.00118	0.00058	0.00004	-3.78840	-89.82000	-0.18278	-0.06420	0.35763	0.01024	0.03840	0.00204
1.06600	0.00077	0.00118	0.00058	0.00004	-3.87860	-89.82000	-0.18278	-0.06420	0.35763	0.01024	0.03840	0.00204
1.06800	-0.00055	-0.00027	0.00061	0.00038	0.00000	0.00000	-0.19296	-0.01811	0.38801	0.01342	0.03899	0.00133
1.07000	-0.00055	-0.00027	0.00061	0.00038	-3.87860	-89.91000	-0.19296	-0.01811	0.38801	0.01342	0.03899	0.00133
1.07200	-0.00055	-0.00027	0.00061	0.00038	-3.87860	-89.82000	-0.19296	-0.01811	0.38801	0.01342	0.03899	0.00133
1.07400	-0.00055	-0.00027	0.00061	0.00038	-3.87860	-89.82000	-0.19296	-0.01811	0.38801	0.01342	0.03899	0.00133
1.07600	-0.00029	0.00091	0.00069	0.00038	-4.05900	-89.82000	-0.17116	-0.00401	0.41099	0.01996	0.03738	0.00071
1.07800	-0.00029	0.00091	0.00069	0.00038	-3.96880	-89.82000	-0.17116	-0.00401	0.41099	0.01996	0.03738	0.00071
1.08000	-0.00029	0.00091	0.00069	0.00038	-3.96880	-89.82000	-0.17116	-0.00401	0.41099	0.01996	0.03738	0.00071
1.08200	-0.00029	0.00091	0.00069	0.00038	-3.87860	-89.82000	-0.17116	-0.00401	0.41099	0.01996	0.03738	0.00071
1.08400	-0.00044	-0.00030	0.00047	0.00066	0.00000	0.00000	-0.19224	-0.02870	0.40035	0.01758	0.03171	0.00241
1.08600	-0.00044	-0.00030	0.00047	0.00066	-3.69820	-89.82000	-0.19224	-0.02870	0.40035	0.01758	0.03171	0.00241
1.08800	-0.00044	-0.00030	0.00047	0.00066	0.00000	0.00000	-0.19224	-0.02870	0.40035	0.01758	0.03171	0.00241
1.09000	-0.00044	-0.00030	0.00047	0.00066	0.00000	0.00000	-0.19224	-0.02870	0.40035	0.01758	0.03171	0.00241
1.09200	0.00080	0.00100	0.00039	0.00042	-3.69820	-89.91000	-0.19234	-0.01811	0.38477	0.01558	0.03843	0.00707
1.09400	0.00080	0.00100	0.00039	0.00042	-3.78840	-89.91000	-0.19234	-0.01811	0.38477	0.01558	0.03843	0.00707
1.09600	0.00080	0.00100	0.00039	0.00042	-3.87860	-89.82000	-0.19234	-0.01811	0.38477	0.01558	0.03843	0.00707
1.09800	0.00080	0.00100	0.00039	0.00042	0.00000	0.00000	-0.19234	-0.01811	0.38477	0.01558	0.03843	0.00707
1.10000	-0.00048	-0.00011	0.00056	0.00055	-3.87860	-89.82000	-0.14668	-0.03858	0.34051	0.01678	0.03698	0.00991
1.10200	-0.00048	-0.00011	0.00056	0.00055	-3.78840	-89.82000	-0.14668	-0.03858	0.34051	0.01678	0.03698	0.00991
1.10400	-0.00048	-0.00011	0.00056	0.00055	-3.78840	-89.91000	-0.14668	-0.03858	0.34051	0.01678	0.03698	0.00991
1.10600	-0.00048	-0.00011	0.00056	0.00055	0.00000	0.00000	-0.14668	-0.03858	0.34051	0.01678	0.03698	0.00991
1.10800	-0.00016	0.00018	0.00065	0.00002	-3.87860	-89.82000	-0.12446	-0.02305	0.31383	0.02240	0.02671	0.01028
1.11000	-0.00016	0.00018	0.00065	0.00002	-3.78840	-89.91000	-0.12446	-0.02305	0.31383	0.02240	0.02671	0.01028
1.11200	-0.00016	0.00018	0.00065	0.00002	-3.69820	-89.91000	-0.12446	-0.02305	0.31383	0.02240	0.02671	0.01028
1.11400	-0.00016	0.00018	0.00065	0.00002	-3.60800	-90.00000	-0.12446	-0.02305	0.31383	0.02240	0.02671	0.01028
1.11600	0.00018	0.00000	0.00084	0.00070	-3.60800	-90.00000	-0.09484	0.00597	0.27281	0.02718	0.01058	0.01228
1.11800	0.00018	0.00000	0.00084	0.00070	-3.60800	-89.91000	-0.09484	0.00597	0.27281	0.02718	0.01058	0.01228
1.12000	0.00018	0.00000	0.00084	0.00070	0.00000	0.00000	-0.09484	0.00597	0.27281	0.02718	0.01058	0.01228
1.12200	0.00018	0.00000	0.00084	0.00070	-3.78840	-89.82000	-0.09484	0.00597	0.27281	0.02718	0.01058	0.01228
1.12400	0.00011	0.00046	0.00081	0.00072	-3.78840	-89.82000	-0.08311	-0.00185	0.18876	0.02486	0.00651	0.01543
1.12600	0.00011	0.00046	0.00081	0.00072	-3.87860	-89.82000	-0.08311	-0.00185	0.18876	0.02486	0.00651	0.01543
1.12800	0.00011	0.00046	0.00081	0.00072	0.00000	0.00000	-0.08311	-0.00185	0.18876	0.02486	0.00651	0.01543
1.13000	0.00011	0.00046	0.00081	0.00072	-3.87860	-89.82000	-0.08311	-0.00185	0.18876	0.02486	0.00651	0.01543
1.13200	-0.00057	-0.00010	0.00076	0.00072	-3.78840	-89.82000	-0.06964	-0.01204	0.10379	0.02483	0.00996	0.01386
1.13400	-0.00057	-0.00010	0.00076	0.00072	-3.69820	-89.82000	-0.06964	-0.01204	0.10379	0.02483	0.00996	0.01386
1.13600	-0.00057	-0.00010	0.00076	0.00072	0.00000	0.00000	-0.06964	-0.01204	0.10379	0.02483	0.00996	0.01386
1.13800	-0.00057	-0.00010	0.00076	0.00072	-3.87860	-89.73000	-0.06964	-0.01204	0.10379	0.02483	0.00996	0.01386
1.14000	-0.00026	0.00021	0.00070	0.00053	-3.87860	-89.73000	-0.06799	-0.01409	0.05521	0.02209	0.01157	0.01102
1.14200	-0.00026	0.00021	0.00070	0.00053	0.00000	0.00000	-0.06799	-0.01409	0.05521	0.02209	0.01157	0.01102
1.14400	-0.00026	0.00021	0.00070	0.00053	-3.96880	-89.82000	-0.06799	-0.01409	0.05521	0.02209	0.01157	0.01102
1.14600	-0.00026	0.00021	0.00070	0.00053	-3.87860	-89.82000	-0.06799	-0.01409	0.05521	0.02209	0.01157	0.01102
1.14800	0.00045	-0.00026	0.00093	0.00044	-3.87860	-89.73000	-0.09926	-0.02274	-0.02498	0.01916	0.01326	0.00960
1.15000	0.00045	-0.00026	0.00093	0.00044	0.00000	0.00000	-0.09926	-0.02274	-0.02498	0.01916	0.01326	0.00960
1.15200	0.00045	-0.00026	0.00093	0.00044	-3.78840	-89.64000	-0.09926	-0.02274	-0.02498	0.01916	0.01326	0.00960
1.15400	0.00045	-0.00026	0.00093	0.00044	-3.87860	-89.73000	-0.09926	-0.02274	-0.02498	0.01916	0.01326	0.00960
1.15600	-0.00006	0.00082	0.00107	0.00035	-3.87860	-89.64000	-0.05554	0.01276	-0.09284	0.02382	0.00857	0.00306
1.15800	-0.00006	0.00082	0.00107	0.00035	0.00000	0.00000	-0.05554	0.01276	-0.09284	0.02382	0.00857	0.00306
1.16000	-0.00006	0.00082	0.00107	0.00035	-3.69820	-89.64000	-0.05554	0.01276	-0.09284	0.02382	0.00857	0.00306
1.16200	-0.00006	0.00082	0.00107	0.00035	-3.78840	-89.64000	-0.05554	0.01276	-0.09284	0.02382	0.00857	0.00306
1.16400	-0.00087	0.00013	0.00085	0.00062	0.00000	0.00000	-0.11613	-0.00453	-0.11535	0.02246	0.01169	0.00407
1.16600	-0.00087	0.00013	0.00085	0.00062	-3.78840	-89.64000	-0.11613	-0.00453	-0.11535	0.02246	0.01169	0.00407
1.16800	-0.00087	0.00013	0.00085	0.00062	-3.78840	-89.64000	-0.11613	-0.00453	-0.11535	0.02246	0.01169	0.00407
1.17000	-0.00087	0.00013	0.00085	0.00062	-3.78840	-89.64000	-0.11613	-0.00453	-0.11535	0.02246	0.01169	0.00407
1.17200	-0.00076	0.00028	0.00077	0.00036	0.00000	0.00000	-0.10615	0.03539	-0.12260	0.02206	0.01798	0.00484
1.17400	-0.00076	0.00028	0.00077	0.00036	-3.69820	-89.64000	-0.10615	0.03539	-0.12260	0.02206	0.01798	0.00484
1.17600	-0.00076	0.00028	0.00077	0.00036	-3.69820	-89.73000	-0.10615	0.03539	-0.12260	0.02206	0.01798	0.00484
1.17800	-0.00076	0.00028	0.00077	0.00036	-3.69820	-89.73000	-0.10615	0.03539	-0.12260	0.02206	0.01798	0.00484
1.18000	0.00021	0.00000	0.00020	0.00058	0.00000	0.00000	-0.13063	0.00041	-0.09608	0.01675	0.01820	0.00518
1.18200	0.00021	0.00000	0.00020	0.00058	-3.69820	-89.73000	-0.13063	0.00041	-0.09608	0.01675	0.01820	0.00518
1.18400	0.00021	0.00000	0.00020	0.00058	-3.69820	-89.73000	-0.13063	0.00041	-0.09608	0.01675	0.01820	0.00518
1.18600	0.00021	0.00000	0.00020	0.00058	-3.60800	-89.55000	-0.13063	0.00041	-0.09608	0.01675	0.01820	0.00518
1.18800	-0.00037	0.00043	0.00045	0.00067	-3.69820	-89.64000	-0.14966	-0.03416	-0.01696	0.01138	0.03057	0.00562
1.19000	-0.00037	0.00043	0.00045	0.00067	-3.69820	-89.55000	-0.14966	-0.03416	-0.01696	0.01138	0.03057	0.00562
1.19200	-0.00037	0.00043	0.00045	0.00067	-3.60800	-89.46000	-0.14966	-0.03416	-0.01696	0.01138	0.03057	0.00562
1.19400	-0.00037	0.00043	0.00045	0.00067	0.00000	0.00000	-0.14966	-0.03416	-0.01696	0.01138	0.03057	0.00562
1.19600	-0.00024	0.00045	0.00092	0.00045	-3.60800	-89.64000	-0.13577	-0.05751	-0.04997	0.00620	0.03044	0.01077
1.19800	-0.00024	0.00045	0.00092	0.00045	-3.69820	-89.64000	-0.13577	-0.05751	-0.04997	0.00620	0.03044	0.01077
1.20000	-0.00024	0.00045	0.00092	0.00045	0.00000	0.00000	-0.13577	-0.05751	-0.04997	0.00620	0.03044	0.01077
1.20200	-0.00024	0.00045	0.00092	0.00045	-3.78840	-89.64000	-0.13577	-0.05751	-0.04997	0.00620	0.03044	0.01077
1.20400	-0.00107	0.00027	0.00067	0.00075	-3.78840	-89.64000	-0.16447	-0.06121	0.01126	0.00543	0.02566	0.01250
1.20600	-0.00107	0.00027	0.00067	0.00075	-3.78840	-89.73000	-0.16447	-0.06121	0.01126	0.00543	0.02566	0.01250
1.20800	-0.00107	0.00027	0.00067	0.00075	-3.69820	-89.64000	-0.16447	-0.06121	0.01126	0.00543	0.02566	0.01250
1.21000	-0.00107	0.00027	0.00067	0.00075	-3.60800	-89.64000	-0.16447	-0.06121	0.01126	0.00543	0.02566	0.01250
1.21200	0.00107	0.00012	0.00071	0.00049	-3.60800	-89.64000	-0.15213	-0.05977	0.04935	0.00558	0.02862	0.01342
1.21400	0.00107	0.00012	0.00071	0.00049	-3.78840	-89.64000	-0.15213	-0.05977	0.04935	0.00558	0.02862	0.01342
1.21600	0.00107	0.00012	0.00071	0.00049	0.00000	0.00000	-0.15213	-0.05977	0.04935	0.00558	0.02862	0.01342
1.21800	0.00107	0.00012	0.00071	0.00049	-3.78840	-89.73000	-0.15213	-0.05977	0.04935	0.00558	0.02862	0.01342
1.22000	-0.00035	0.00029	0.00051	0.00092	-3.78840	-89.73000	-0.20201	-0.04177	0.04241	0.00623	0.03390	0.01379
1.22200	-0.00035	0.00029	0.00051	0.00092	0.00000	0.00000	-0.20201	-0.04177	0.04241	0.00623	0.03390	0.01379
1.22400	-0.00035	0.00029	0.00051	0.00092	0.00000	0.00000	-0.20201	-0.04177	0.04241	0.00623	0.03390	0.01379
1.22600	-0.00035	0.00029	0.00051	0.00092	-3.96880	-89.73000	-0.20201	-0.04177	0.04241	0.00623	0.03390	0.01379
1.22800	-0.00055	0.00072	0.00072	0.00033	-3.87860	-89.82000	-0.18165	-0.04846	0.06508	0.00432	0.03618	0.01478
1.23000	-0.00055	0.00072	0.00072	0.00033	-3.78840	-89.73000	-0.18165	-0.04846	0.06508	0.00432	0.03618	0.01478
1.23200	-0.00055	0.00072	0.00072	0.00033	-3.78840	-89.73000	-0.18165	-0.04846	0.06508	0.00432	0.03618	0.01478
1.23400	-0.00055	0.00072	0.00072	0.00033	-3.78840	-89.73000	-0.18165	-0.04846	0.06508	0.00432	0.03618	0.01478
1.23600	-0.00016	-0.00040	0.00087	0.00041	-3.78840	-89.73000	-0.18422	-0.06029	0.08389	-0.00219	0.03291	0.01043
1.23800	-0.00016	-0.00040	0.00087	0.00041	0.00000	0.00000	-0.18422	-0.06029	0.08389	-0.00219	0.03291	0.01043
1.24000	-0.00016	-0.00040	0.00087	0.00041	-3.69820	-89.64000	-0.18422	-0.06029	0.08389	-0.00219	0.03291	0.01043
1.24200	-0.00016	-0.00040	0.00087	0.00041	-3.69820	-89.64000	-0.18422	-0.06029	0.08389	-0.00219	0.03291	0.01043
1.24400	0.00069	0.00111	0.00046	0.00040	-3.69820	-89.73000	-0.17373	-0.07603	0.07433	-0.00281	0.02498	0.00833
1.24600	0.00069	0.00111	0.00046	0.00040	0.00000	0.00000	-0.17373	-0.07603	0.07433	-0.00281	0.02498	0.00833
1.24800	0.00069	0.00111	0.00046	0.00040	-3.60800	-89.73000	-0.17373	-0.07603	0.07433	-0.00281	0.02498	0.00833
1.25000	0.00069	0.00111	0.00046	0.00040	-3.69820	-89.82000	-0.17373	-0.07603	0.07433	-0.00281	0.02498	0.00833
1.25200	-0.00017	-0.00024	0.00072	0.00010	-3.69820	-89.82000	-0.15336	-0.05268	0.09932	0.00089	0.02073	0.00562
1.25400	-0.00017	-0.00024	0.00072	0.00010	0.00000	0.00000	-0.15336	-0.05268	0.09932	0.00089	0.02073	0.00562
1.25600	-0.00017	-0.00024	0.00072	0.00010	-3.60800	-89.64000	-0.15336	-0.05268	0.09932	0.00089	0.02073	0.00562
1.25800	-0.00017	-0.00024	0.00072	0.00010	-3.78840	-89.64000	-0.15336	-0.05268	0.09932	0.00089	0.02073	0.00562
1.26000	-0.00032	0.00024	0.00063	0.00036	0.00000	0.00000	-0.15336	-0.05268	0.09932	0.00089	0.02073	0.00562
1.26200	-0.00032	0.00024	0.00063	0.00036	-3.87860	-89.64000	-0.15408	-0.04846	0.10317	0.00265	0.02060	0.00355
1.26400	-0.00024	-0.00038	0.00090	0.00110	-3.78840	-89.64000	-0.15408	-0.04846	0.10317	0.00265	0.02060	0.00355
1.26600	-0.00024	-0.00038	0.00090	0.00110	-3.78840	-89.73000	-0.15408	-0.04846	0.10317	0.00265	0.02060	0.00355
1.26800	-0.00024	-0.00038	0.00090	0.00110	0.00000	0.00000	-0.15408	-0.04846	0.10317	0.00265	0.02060	0.00355
1.27000	-0.00024	-0.00038	0.00090	0.00110	-3.69820	-89.73000	-0.15408	-0.04846	0.10317	0.00265	0.02060	0.00355
1.27200	0.00110	0.00013	0.00081	0.00078	-3.69820	-89.73000	-0.14236	-0.01636	0.06832	0.00694	0.02190	0.00268
1.27400	0.00110	0.00013	0.00081	0.00078	-3.69820	-89.73000	-0.14236	-0.01636	0.06832	0.00694	0.02190	0.00268
1.27600	0.00110	0.00013	0.00081	0.00078	0.00000	0.00000	-0.14236	-0.01636	0.06832	0.00694	0.02190	0.00268
1.27800	0.00110	0.00013	0.00081	0.00078	-3.78840	-89.73000	-0.14236	-0.01636	0.06832	0.00694	0.02190	0.00268
1.28000	-0.00034	0.00089	0.00044	0.00062	-3.69820	-89.73000	-0.15501	-0.05453	0.06770	0.00626	0.01400	0.00429
1.28200	-0.00034	0.00089	0.00044	0.00062	-3.69820	-89.73000	-0.15501	-0.05453	0.06770	0.00626	0.01400	0.00429
1.28400	-0.00034	0.00089	0.00044	0.00062	0.00000	0.00000	-0.15501	-0.05453	0.06770	0.00626	0.01400	0.00429
1.28600	-0.00034	0.00089	0.00044	0.00062	-3.60800	-89.73000	-0.15501	-0.05453	0.06770	0.00626	0.01400	0.00429
1.28800	-0.00067	-0.00006	0.00079	0.00052	-3.60800	-89.82000	-0.15994	-0.03632	0.02560	0.00706	0.02656	0.00574
1.29000	-0.00067	-0.00006	0.00079	0.00052	-3.51780	-89.73000	-0.15994	-0.03632	0.02560	0.00706	0.02656	0.00574
1.29200	-0.00067	-0.00006	0.00079	0.00052	-3.51780	-89.73000	-0.15994	-0.03632	0.02560	0.00706	0.02656	0.00574
1.29400	-0.00067	-0.00006	0.00079	0.00052	-3.42760	-89.73000	-0.15994	-0.03632	0.02560	0.00706	0.02656	0.00574
1.29600	-0.00122	0.00067	0.00057	0.00012	-3.42760	-89.73000	-0.16766	-0.02541	0.01974	0.00925	0.03664	0.00954
1.29800	-0.00122	0.00067	0.00057	0.00012	0.00000	0.00000	-0.16766	-0.02541	0.01974	0.00925	0.03664	0.00954
1.30000	-0.00122	0.00067	0.00057	0.00012	-3.60800	-89.64000	-0.16766	-0.02541	0.01974	0.00925	0.03664	0.00954
1.30200	-0.00122	0.00067	0.00057	0.00012	-3.60800	-89.64000	-0.16766	-0.02541	0.01974	0.00925	0.03664	0.00954
1.30400	0.00069	-0.00043	0.00053	0.00073	-3.87860	-89.73000	-0.15994	-0.04218	0.04565	0.01225	0.03451	0.01102
1.30600	0.00069	-0.00043	0.00053	0.00073	0.00000	0.00000	-0.15994	-0.04218	0.04565	0.01225	0.03451	0.01102
1.30800	0.00069	-0.00043	0.00053	0.00073	-3.78840	-89.73000	-0.15994	-0.04218	0.04565	0.01225	0.03451	0.01102
1.31000	0.00069	-0.00043	0.00053	0.00073	-3.69820	-89.73000	-0.15994	-0.04218	0.04565	0.01225	0.03451	0.01102
1.31200	0.00028	0.00030	0.00057	0.00063	0.00000	0.00000	-0.13834	-0.00031	0.04010	0.01879	0.02603	0.01333
1.31400	0.00028	0.00030	0.00057	0.00063	-3.60800	-89.64000	-0.13834	-0.00031	0.04010	0.01879	0.02603	0.01333
1.31600	0.00028	0.00030	0.00057	0.00063	-3.69820	-89.55000	-0.13834	-0.00031	0.04010	0.01879	0.02603	0.01333
1.31800	0.00028	0.00030	0.00057	0.00063	-3.69820	-89.55000	-0.13834	-0.00031	0.04010	0.01879	0.02603	0.01333
1.32000	-0.00056	0.00007	0.00078	0.00078	0.00000	0.00000	-0.10769	-0.00782	0.03686	0.01999	0.01450	0.01602
1.32200	-0.00056	0.00007	0.00078	0.00078	-3.78840	-89.64000	-0.10769	-0.00782	0.03686	0.01999	0.01450	0.01602
1.32400	-0.00056	0.00007	0.00078	0.00078	-3.69820	-89.64000	-0.10769	-0.00782	0.03686	0.01999	0.01450	0.01602
1.32600	-0.00056	0.00007	0.00078	0.00078	0.00000	0.00000	-0.10769	-0.00782	0.03686	0.01999	0.01450	0.01602
1.32800	-0.00027	0.00030	0.00063	0.00082	0.00000	0.00000	-0.10790	-0.02593	0.09284	0.01845	0.01934	0.01552
1.33000	-0.00027	0.00030	0.00063	0.00082	-3.69820	-89.91000	-0.10790	-0.02593	0.09284	0.01845	0.01934	0.01552
1.33200	-0.00027	0.00030	0.00063	0.00082	-3.69820	-89.91000	-0.10790	-0.02593	0.09284	0.01845	0.01934	0.01552
1.33400	-0.00027	0.00030	0.00063	0.00082	-3.78840	-89.91000	-0.10790	-0.02593	0.09284	0.01845	0.01934	0.01552
1.33600	0.00101	-0.00024	0.00114	0.00007	0.00000	0.00000	-0.15583	-0.02181	0.12892	0.01246	0.03303	0.01299
1.33800	0.00101	-0.00024	0.00114	0.00007	-3.78840	-89.73000	-0.15583	-0.02181	0.12892	0.01246	0.03303	0.01299
1.34000	0.00101	-0.00024	0.00114	0.00007	-3.78840	-89.73000	-0.15583	-0.02181	0.12892	0.01246	0.03303	0.01299
1.34200	0.00101	-0.00024	0.00114	0.00007	0.00000	0.00000	-0.15583	-0.02181	0.12892	0.01246	0.03303	0.01299
1.34400	-0.00030	0.00056	0.00054	0.00042	-3.69820	-89.64000	-0.15583	-0.02181	0.12892	0.01246	0.03303	0.01299
1.34600	-0.00124	0.00135	0.00089	0.00081	-3.69820	-89.82000	-0.15717	-0.01389	0.15638	0.01882	0.04145	0.01018
1.34800	-0.00124	0.00135	0.00089	0.00081	-3.78840	-89.64000	-0.15717	-0.01389	0.15638	0.01882	0.04145	0.01018
1.35000	-0.00124	0.00135	0.00089	0.00081	0.00000	0.00000	-0.15717	-0.01389	0.15638	0.01882	0.04145	0.01018
1.35200	-0.00124	0.00135	0.00089	0.00081	-3.78840	-89.73000	-0.15717	-0.01389	0.15638	0.01882	0.04145	0.01018
1.35400	-0.00046	0.00079	0.00096	0.00001	-3.69820	-89.82000	-0.13001	-0.03251	0.21112	0.01654	0.03399	0.00586
1.35600	-0.00046	0.00079	0.00096	0.00001	-3.78840	-89.82000	-0.13001	-0.03251	0.21112	0.01654	0.03399	0.00586
1.35800	-0.00046	0.00079	0.00096	0.00001	0.00000	0.00000	-0.13001	-0.03251	0.21112	0.01654	0.03399	0.00586
1.36000	-0.00046	0.00079	0.00096	0.00001	-3.78840	-89.82000	-0.13001	-0.03251	0.21112	0.01654	0.03399	0.00586
1.36200	-0.00071	-0.00032	0.00080	0.00025	-3.78840	-89.82000	-0.16375	0.01512	0.21205	0.01888	0.01588	0.00324
1.36400	-0.00071	-0.00032	0.00080	0.00025	0.00000	0.00000	-0.16375	0.01512	0.21205	0.01888	0.01588	0.00324
1.36600	-0.00071	-0.00032	0.00080	0.00025	-3.69820	-89.73000	-0.16375	0.01512	0.21205	0.01888	0.01588	0.00324
1.36800	-0.00071	-0.00032	0.00080	0.00025	-3.69820	-89.73000	-0.16375	0.01512	0.21205	0.01888	0.01588	0.00324
1.37000	0.00117	0.00041	0.00064	0.00002	-3.60800	-89.73000	-0.07920	0.04331	0.23256	0.02391	0.00663	0.00296
1.37200	0.00117	0.00041	0.00064	0.00002	0.00000	0.00000	-0.07920	0.04331	0.23256	0.02391	0.00663	0.00296
1.37400	0.00117	0.00041	0.00064	0.00002	-3.60800	-89.91000	-0.07920	0.04331	0.23256	0.02391	0.00663	0.00296
1.37600	0.00117	0.00041	0.00064	0.00002	-3.69820	-90.00000	-0.07920	0.04331	0.23256	0.02391	0.00663	0.00296
1.37800	-0.00093	-0.00010	0.00030	0.00032	-3.78840	-90.00000	-0.03775	-0.02582	0.28468	0.02033	-0.00025	0.00253
1.38000	-0.00093	-0.00010	0.00030	0.00032	0.00000	0.00000	-0.03775	-0.02582	0.28468	0.02033	-0.00025	0.00253
1.38200	-0.00093	-0.00010	0.00030	0.00032	-3.69820	-90.00000	-0.03775	-0.02582	0.28468	0.02033	-0.00025	0.00253
1.38400	-0.00093	-0.00010	0.00030	0.00032	-3.69820	-90.00000	-0.03775	-0.02582	0.28468	0.02033	-0.00025	0.00253
1.38600	-0.00049	0.00067	0.00046	0.00042	-3.87860	-90.09000	-0.07519	-0.02870	0.31738	0.01141	-0.00219	0.00336
1.38800	-0.00049	0.00067	0.00046	0.00042	-3.69820	-90.00000	-0.07519	-0.02870	0.31738	0.01141	-0.00219	0.00336
1.39000	-0.00049	0.00067	0.00046	0.00042	-3.69820	-90.00000	-0.07519	-0.02870	0.31738	0.01141	-0.00219	0.00336
1.39200	-0.00049	0.00067	0.00046	0.00042	0.00000	0.00000	-0.07519	-0.02870	0.31738	0.01141	-0.00219	0.00336
1.39400	-0.00044	-0.00004	0.00066	0.00028	-3.69820	-89.91000	-0.01059	-0.04877	0.32463	0.00861	-0.01024	0.00336
1.39600	0.00155	0.00096	0.00041	0.00030	-3.69820	-89.91000	-0.01059	-0.04877	0.32463	0.00861	-0.01024	0.00336
1.39800	0.00155	0.00096	0.00041	0.00030	-3.69820	-89.91000	-0.01059	-0.04877	0.32463	0.00861	-0.01024	0.00336
1.40000	0.00155	0.00096	0.00041	0.00030	0.00000	0.00000	-0.01059	-0.04877	0.32463	0.00861	-0.01024	0.00336
1.40200	0.00155	0.00096	0.00041	0.00030	-3.60800	-89.82000	-0.01059	-0.04877	0.32463	0.00861	-0.01024	0.00336
1.40400	0.00013	0.00105	0.00053	0.00054	-3.60800	-89.82000	-0.04639	-0.08673	0.28437	0.00620	-0.00928	0.00670
1.40600	0.00013	0.00105	0.00053	0.00054	-3.60800	-89.82000	-0.04639	-0.08673	0.28437	0.00620	-0.00928	0.00670
1.40800	0.00013	0.00105	0.00053	0.00054	0.00000	0.00000	-0.04639	-0.08673	0.28437	0.00620	-0.00928	0.00670
1.41000	0.00013	0.00105	0.00053	0.00054	-3.60800	-89.82000	-0.04639	-0.08673	0.28437	0.00620	-0.00928	0.00670
1.41200	-0.00033	-0.00049	0.00084	0.00082	-3.60800	-89.82000	-0.03734	-0.02335	0.22438	0.00818	-0.00842	0.00913
1.41400	-0.00033	-0.00049	0.00084	0.00082	0.00000	0.00000	-0.03734	-0.02335	0.22438	0.00818	-0.00842	0.00913
1.41600	-0.00033	-0.00049	0.00084	0.00082	0.00000	0.00000	-0.03734	-0.02335	0.22438	0.00818	-0.00842	0.00913
1.41800	-0.00033	-0.00049	0.00084	0.00082	-3.69820	-89.82000	-0.03734	-0.02335	0.22438	0.00818	-0.00842	0.00913
1.42000	-0.00034	0.00087	0.00057	0.00065	-3.69820	-89.82000	-0.06758	-0.06121	0.19771	0.00925	-0.00712	0.01191
1.42200	-0.00034	0.00087	0.00057	0.00065	-3.78840	-89.82000	-0.06758	-0.06121	0.19771	0.00925	-0.00712	0.01191
1.42400	-0.00034	0.00087	0.00057	0.00065	0.00000	0.00000	-0.06758	-0.06121	0.19771	0.00925	-0.00712	0.01191
1.42600	-0.00034	0.00087	0.00057	0.00065	-3.78840	-89.91000	-0.06758	-0.06121	0.19771	0.00925	-0.00712	0.01191
1.42800	-0.00040	-0.00033	0.00062	0.00022	-3.78840	-89.91000	-0.06758	-0.06121	0.19771	0.00925	-0.00712	0.01191
1.43000	0.00095	0.00215	0.00063	0.00039	-3.69820	-89.91000	-0.08877	-0.01770	0.17874	0.01274	0.00441	0.01324
1.43200	0.00095	0.00215	0.00063	0.00039	0.00000	0.00000	-0.08877	-0.01770	0.17874	0.01274	0.00441	0.01324
1.43400	0.00095	0.00215	0.00063	0.00039	-3.60800	-89.91000	-0.08877	-0.01770	0.17874	0.01274	0.00441	0.01324
1.43600	0.00095	0.00215	0.00063	0.00039	-3.69820	-89.82000	-0.08877	-0.01770	0.17874	0.01274	0.00441	0.01324
1.43800	-0.00043	0.00001	0.00093	0.00062	-3.78840	-89.91000	-0.12713	-0.02551	0.06924	0.00771	0.01061	0.01163
1.44000	-0.00043	0.00001	0.00093	0.00062	0.00000	0.00000	-0.12713	-0.02551	0.06924	0.00771	0.01061	0.01163
1.44200	-0.00043	0.00001	0.00093	0.00062	-3.87860	-89.91000	-0.12713	-0.02551	0.06924	0.00771	0.01061	0.01163
1.44400	-0.00043	0.00001	0.00093	0.00062	0.00000	0.00000	-0.12713	-0.02551	0.06924	0.00771	0.01061	0.01163
1.44600	-0.00050	0.00018	0.00065	0.00026	0.00000	0.00000	-0.15418	-0.03313	0.02252	0.01064	0.02005	0.00941
1.44800	-0.00050	0.00018	0.00065	0.00026	-3.87860	-89.91000	-0.15418	-0.03313	0.02252	0.01064	0.02005	0.00941
1.45000	-0.00050	0.00018	0.00065	0.00026	-3.78840	-89.91000	-0.15418	-0.03313	0.02252	0.01064	0.02005	0.00941
1.45200	-0.00050	0.00018	0.00065	0.00026	0.00000	0.00000	-0.15418	-0.03313	0.02252	0.01064	0.02005	0.00941
1.45400	-0.00098	0.00006	0.00081	0.00021	0.00000	0.00000	-0.14616	-0.01554	-0.01727	0.01521	0.02205	0.00978
1.45600	-0.00098	0.00006	0.00081	0.00021	-3.69820	-89.82000	-0.14616	-0.01554	-0.01727	0.01521	0.02205	0.00978
1.45800	-0.00098	0.00006	0.00081	0.00021	-3.69820	-89.82000	-0.14616	-0.01554	-0.01727	0.01521	0.02205	0.00978
1.46000	-0.00098	0.00006	0.00081	0.00021	-3.78840	-89.73000	-0.14616	-0.01554	-0.01727	0.01521	0.02205	0.00978
1.46200	0.00144	0.00098	0.00066	0.00022	0.00000	0.00000	-0.19060	0.00360	-0.08513	0.02150	0.02819	0.00827
1.46400	0.00144	0.00098	0.00066	0.00022	-3.78840	-89.64000	-0.19060	0.00360	-0.08513	0.02150	0.02819	0.00827
1.46600	0.00144	0.00098	0.00066	0.00022	-3.78840	-89.55000	-0.19060	0.00360	-0.08513	0.02150	0.02819	0.00827
1.46800	0.00144	0.00098	0.00066	0.00022	0.00000	0.00000	-0.19060	0.00360	-0.08513	0.02150	0.02819	0.00827
1.47000	0.00002	-0.00028	0.00055	0.00017	-3.60800	-89.73000	-0.18453	0.02058	-0.08790	0.02320	0.03763	0.00808
1.47200	0.00002	-0.00028	0.00055	0.00017	-3.69820	-89.73000	-0.18453	0.02058	-0.08790	0.02320	0.03763	0.00808
1.47400	0.00002	-0.00028	0.00055	0.00017	-3.87860	-89.73000	-0.18453	0.02058	-0.08790	0.02320	0.03763	0.00808
1.47600	0.00002	-0.00028	0.00055	0.00017	0.00000	0.00000	-0.18453	0.02058	-0.08790	0.02320	0.03763	0.00808
1.47800	-0.00068	0.00130	0.00087	0.00064	-3.87860	-89.73000	-0.19985	-0.01502	-0.12168	0.02283	0.03328	0.00639
1.48000	-0.00068	0.00130	0.00087	0.00064	-3.78840	-89.73000	-0.19985	-0.01502	-0.12168	0.02283	0.03328	0.00639
1.48200	-0.00068	0.00130	0.00087	0.00064	-3.87860	-89.64000	-0.19985	-0.01502	-0.12168	0.02283	0.03328	0.00639
1.48400	-0.00068	0.00130	0.00087	0.00064	0.00000	0.00000	-0.19985	-0.01502	-0.12168	0.02283	0.03328	0.00639
1.48600	-0.00012	-0.00015	0.00072	0.00080	-3.78840	-89.64000	-0.18772	-0.03117	-0.15823	0.02150	0.03109	0.00839
1.48800	-0.00012	-0.00015	0.00072	0.00080	-3.69820	-89.73000	-0.18772	-0.03117	-0.15823	0.02150	0.03109	0.00839
1.49000	-0.00012	-0.00015	0.00072	0.00080	-3.69820	-89.73000	-0.18772	-0.03117	-0.15823	0.02150	0.03109	0.00839
1.49200	-0.00012	-0.00015	0.00072	0.00080	0.00000	0.00000	-0.18772	-0.03117	-0.15823	0.02150	0.03109	0.00839
1.49400	0.00073	0.00083	0.00072	0.00064	-3.78840	-89.73000	-0.16540	-0.00967	-0.16378	0.02517	0.02782	0.00697
1.49600	0.00073	0.00083	0.00072	0.00064	-3.78840	-89.82000	-0.16540	-0.00967	-0.16378	0.02517	0.02782	0.00697
1.49800	0.00073	0.00083	0.00072	0.00064	0.00000	0.00000	-0.16540	-0.00967	-0.16378	0.02517	0.02782	0.00697
1.50000	0.00073	0.00083	0.00072	0.00064	-3.69820	-89.73000	-0.16540	-0.00967	-0.16378	0.02517	0.02782	0.00697
1.50200	-0.00039	0.00010	0.00078	0.00050	-3.69820	-89.73000	-0.15665	-0.00113	-0.12970	0.02776	0.01971	0.00818
1.50400	-0.00039	0.00010	0.00078	0.00050	-3.69820	-89.73000	-0.15665	-0.00113	-0.12970	0.02776	0.01971	0.00818
1.50600	-0.00039	0.00010	0.00078	0.00050	0.00000	0.00000	-0.15665	-0.00113	-0.12970	0.02776	0.01971	0.00818
1.50800	-0.00039	0.00010	0.00078	0.00050	-3.87860	-89.82000	-0.15665	-0.00113	-0.12970	0.02776	0.01971	0.00818
1.51000	-0.00090	0.00040	0.00039	0.00016	-3.87860	-89.82000	-0.13269	0.02325	-0.11057	0.03060	0.01632	0.00870
1.51200	-0.00090	0.00040	0.00039	0.00016	-3.78840	-89.82000	-0.13269	0.02325	-0.11057	0.03060	0.01632	0.00870
1.51400	-0.00090	0.00040	0.00039	0.00016	-3.78840	-89.82000	-0.13269	0.02325	-0.11057	0.03060	0.01632	0.00870
1.51600	-0.00090	0.00040	0.00039	0.00016	-3.87860	-89.82000	-0.13269	0.02325	-0.11057	0.03060	0.01632	0.00870
1.51800	-0.00072	-0.00024	0.00071	0.00032	-3.78840	-89.64000	-0.10780	0.00082	-0.04596	0.02709	0.00833	0.00907
1.52000	-0.00072	-0.00024	0.00071	0.00032	0.00000	0.00000	-0.10780	0.00082	-0.04596	0.02709	0.00833	0.00907
1.52200	-0.00072	-0.00024	0.00071	0.00032	-3.96880	-89.64000	-0.10780	0.00082	-0.04596	0.02709	0.00833	0.00907
1.52400	-0.00072	-0.00024	0.00071	0.00032	-3.87860	-89.64000	-0.10780	0.00082	-0.04596	0.02709	0.00833	0.00907
1.52600	0.00128	0.00030	0.00071	0.00077	-3.87860	-89.73000	-0.08465	-0.01060	0.00493	0.02283	0.00327	0.01021
1.52800	0.00128	0.00030	0.00071	0.00077	0.00000	0.00000	-0.08465	-0.01060	0.00493	0.02283	0.00327	0.01021
1.53000	0.00128	0.00030	0.00071	0.00077	-3.87860	-89.64000	-0.08465	-0.01060	0.00493	0.02283	0.00327	0.01021
1.53200	0.00128	0.00030	0.00071	0.00077	-3.78840	-89.64000	-0.08465	-0.01060	0.00493	0.02283	0.00327	0.01021
1.53400	-0.00074	-0.00028	0.00094	0.00129	-3.87860	-89.64000	-0.03837	-0.01955	0.04071	0.02187	-0.00814	0.00987
1.53600	-0.00074	-0.00028	0.00094	0.00129	-3.78840	-89.64000	-0.03837	-0.01955	0.04071	0.02187	-0.00814	0.00987
1.53800	-0.00074	-0.00028	0.00094	0.00129	-3.87860	-89.73000	-0.03837	-0.01955	0.04071	0.02187	-0.00814	0.00987
1.54000	-0.00074	-0.00028	0.00094	0.00129	-3.87860	-89.64000	-0.03837	-0.01955	0.04071	0.02187	-0.00814	0.00987
1.54200	-0.00067	0.00100	0.00064	0.00049	0.00000	0.00000	-0.03837	-0.01955	0.04071	0.02187	-0.00814	0.00987
1.54400	-0.00059	-0.00039	0.00059	0.00073	-3.87860	-89.73000	-0.01759	-0.01934	0.13293	0.01891	-0.01949	0.00707
1.54600	-0.00059	-0.00039	0.00059	0.00073	-3.78840	-89.82000	-0.01759	-0.01934	0.13293	0.01891	-0.01949	0.00707
1.54800	-0.00059	-0.00039	0.00059	0.00073	-3.69820	-89.82000	-0.01759	-0.01934	0.13293	0.01891	-0.01949	0.00707
1.55000	-0.00059	-0.00039	0.00059	0.00073	0.00000	0.00000	-0.01759	-0.01934	0.13293	0.01891	-0.01949	0.00707
1.55200	0.00046	-0.00006	0.00076	0.00083	-3.60800	-89.73000	0.00113	0.01656	0.18706	0.02243	-0.02566	0.00981
1.55400	0.00046	-0.00006	0.00076	0.00083	-3.78840	-89.91000	0.00113	0.01656	0.18706	0.02243	-0.02566	0.00981
1.55600	0.00046	-0.00006	0.00076	0.00083	-3.78840	-89.91000	0.00113	0.01656	0.18706	0.02243	-0.02566	0.00981
1.55800	0.00046	-0.00006	0.00076	0.00083	-3.78840	-89.91000	0.00113	0.01656	0.18706	0.02243	-0.02566	0.00981
1.56000	0.00017	0.00119	0.00041	0.00012	-3.78840	-90.00000	0.00113	0.01656	0.18706	0.02243	-0.02566	0.00981
1.56200	0.00016	0.00004	0.00060	0.00060	-3.69820	-89.91000	0.00226	0.01317	0.19771	0.01799	-0.02828	0.00981
1.56400	0.00016	0.00004	0.00060	0.00060	0.00000	0.00000	0.00226	0.01317	0.19771	0.01799	-0.02828	0.00981
1.56600	0.00016	0.00004	0.00060	0.00060	-3.69820	-89.91000	0.00226	0.01317	0.19771	0.01799	-0.02828	0.00981
1.56800	0.00016	0.00004	0.00060	0.00060	-3.69820	-89.91000	0.00226	0.01317	0.19771	0.01799	-0.02828	0.00981
1.57000	-0.00041	0.00011	0.00082	0.00081	0.00000	0.00000	-0.02417	0.02222	0.22099	0.01943	-0.01860	0.00910
1.57200	-0.00041	0.00011	0.00082	0.00081	-3.51780	-89.91000	-0.02417	0.02222	0.22099	0.01943	-0.01860	0.00910
1.57400	-0.00041	0.00011	0.00082	0.00081	-3.60800	-89.91000	-0.02417	0.02222	0.22099	0.01943	-0.01860	0.00910
1.57600	-0.00041	0.00011	0.00082	0.00081	-3.69820	-89.82000	-0.02417	0.02222	0.22099	0.01943	-0.01860	0.00910
1.57800	-0.00117	0.00037	0.00030	0.00019	-3.78840	-89.82000	-0.02952	-0.00535	0.23395	0.01650	-0.01329	0.00895
1.58000	-0.00046	0.00016	0.00060	0.00004	-3.78840	-89.91000	-0.02952	-0.00535	0.23395	0.01650	-0.01329	0.00895
1.58200	-0.00046	0.00016	0.00060	0.00004	-3.78840	-89.91000	-0.02952	-0.00535	0.23395	0.01650	-0.01329	0.00895
1.58400	-0.00046	0.00016	0.00060	0.00004	0.00000	0.00000	-0.02952	-0.00535	0.23395	0.01650	-0.01329	0.00895
1.58600	-0.00046	0.00016	0.00060	0.00004	-3.69820	-89.73000	-0.02952	-0.00535	0.23395	0.01650	-0.01329	0.00895
1.58800	0.00101	0.00072	0.00041	0.00037	-3.69820	-89.82000	-0.08332	-0.02469	0.26109	0.01268	-0.00379	0.00824
1.59000	0.00101	0.00072	0.00041	0.00037	-3.60800	-89.73000	-0.08332	-0.02469	0.26109	0.01268	-0.00379	0.00824
1.59200	0.00101	0.00072	0.00041	0.00037	0.00000	0.00000	-0.08332	-0.02469	0.26109	0.01268	-0.00379	0.00824
1.59400	0.00101	0.00072	0.00041	0.00037	-3.78840	-89.82000	-0.08332	-0.02469	0.26109	0.01268	-0.00379	0.00824
1.59600	-0.00041	-0.00017	0.00036	0.00082	-3.78840	-89.82000	-0.07519	-0.03560	0.24397	0.01404	0.00373	0.00839
1.59800	-0.00041	-0.00017	0.00036	0.00082	-3.87860	-89.82000	-0.07519	-0.03560	0.24397	0.01404	0.00373	0.00839
1.60000	-0.00041	-0.00017	0.00036	0.00082	-3.87860	-89.73000	-0.07519	-0.03560	0.24397	0.01404	0.00373	0.00839
1.60200	-0.00041	-0.00017	0.00036	0.00082	-3.78840	-89.82000	-0.07519	-0.03560	0.24397	0.01404	0.00373	0.00839
1.60400	-0.00068	0.00048	0.00053	0.00065	-3.78840	-89.82000	-0.09772	-0.04239	0.18660	0.01755	0.00404	0.00889
1.60600	-0.00068	0.00048	0.00053	0.00065	0.00000	0.00000	-0.09772	-0.04239	0.18660	0.01755	0.00404	0.00889
1.60800	-0.00068	0.00048	0.00053	0.00065	-3.69820	-89.82000	-0.09772	-0.04239	0.18660	0.01755	0.00404	0.00889
1.61000	-0.00068	0.00048	0.00053	0.00065	-3.69820	-89.91000	-0.09772	-0.04239	0.18660	0.01755	0.00404	0.00889
1.61200	-0.00039	-0.00057	0.00061	0.00020	-3.69820	-89.91000	-0.09741	-0.02346	0.16871	0.01971	0.00234	0.01003
1.61400	-0.00039	-0.00057	0.00061	0.00020	0.00000	0.00000	-0.09741	-0.02346	0.16871	0.01971	0.00234	0.01003
1.61600	-0.00039	-0.00057	0.00061	0.00020	-3.78840	-89.73000	-0.09741	-0.02346	0.16871	0.01971	0.00234	0.01003
1.61800	-0.00039	-0.00057	0.00061	0.00020	-3.69820	-89.82000	-0.09741	-0.02346	0.16871	0.01971	0.00234	0.01003
1.62000	0.00176	0.00065	0.00072	-0.00001	0.00000	0.00000	-0.08095	-0.03066	0.14712	0.01879	-0.00225	0.00969
1.62200	0.00176	0.00065	0.00072	-0.00001	-3.78840	-89.73000	-0.08095	-0.03066	0.14712	0.01879	-0.00225	0.00969
1.62400	0.00176	0.00065	0.00072	-0.00001	-3.78840	-89.73000	-0.08095	-0.03066	0.14712	0.01879	-0.00225	0.00969
1.62600	0.00176	0.00065	0.00072	-0.00001	-3.69820	-89.73000	-0.08095	-0.03066	0.14712	0.01879	-0.00225	0.00969
1.62800	-0.00029	-0.00021	0.00065	0.00032	0.00000	0.00000	-0.09031	-0.04352	0.12368	0.01697	0.00228	0.00790
1.63000	-0.00029	-0.00021	0.00065	0.00032	-3.69820	-89.64000	-0.09031	-0.04352	0.12368	0.01697	0.00228	0.00790
1.63200	-0.00029	-0.00021	0.00065	0.00032	-3.60800	-89.73000	-0.09031	-0.04352	0.12368	0.01697	0.00228	0.00790
1.63400	-0.00029	-0.00021	0.00065	0.00032	-3.69820	-89.73000	-0.09031	-0.04352	0.12368	0.01697	0.00228	0.00790
1.63600	-0.00052	0.00078	0.00063	0.00076	0.00000	0.00000	-0.10080	-0.03261	0.10317	0.01755	0.00700	0.00466
1.63800	-0.00052	0.00078	0.00063	0.00076	-3.78840	-89.82000	-0.10080	-0.03261	0.10317	0.01755	0.00700	0.00466
1.64000	-0.00052	0.00078	0.00063	0.00076	-3.69820	-89.82000	-0.10080	-0.03261	0.10317	0.01755	0.00700	0.00466
1.64200	-0.00052	0.00078	0.00063	0.00076	0.00000	0.00000	-0.10080	-0.03261	0.10317	0.01755	0.00700	0.00466
1.64400	-0.00055	-0.00015	0.00079	0.00061	-3.69820	-89.82000	-0.10090	-0.04599	0.08297	0.02014	0.00284	0.00602
1.64600	-0.00055	-0.00015	0.00079	0.00061	-3.69820	-89.73000	-0.10090	-0.04599	0.08297	0.02014	0.00284	0.00602
1.64800	-0.00055	-0.00015	0.00079	0.00061	-3.78840	-89.73000	-0.10090	-0.04599	0.08297	0.02014	0.00284	0.00602
1.65000	-0.00055	-0.00015	0.00079	0.00061	0.00000	0.00000	-0.10090	-0.04599	0.08297	0.02014	0.00284	0.00602
1.65200	0.00080	0.00091	0.00095	0.00051	-3.60800	-89.73000	-0.09247	-0.01152	0.06708	0.02163	0.00028	0.00713
1.65400	0.00005	-0.00113	0.00105	0.00062	-3.69820	-89.64000	-0.09247	-0.01152	0.06708	0.02163	0.00028	0.00713
1.65600	0.00005	-0.00113	0.00105	0.00062	-3.60800	-89.64000	-0.09247	-0.01152	0.06708	0.02163	0.00028	0.00713
1.65800	0.00005	-0.00113	0.00105	0.00062	0.00000	0.00000	-0.09247	-0.01152	0.06708	0.02163	0.00028	0.00713
1.66000	0.00005	-0.00113	0.00105	0.00062	-3.60800	-89.73000	-0.09247	-0.01152	0.06708	0.02163	0.00028	0.00713
1.66200	-0.00048	-0.00054	0.00097	0.00078	-3.69820	-89.73000	-0.09813	0.00823	0.07248	0.02218	-0.00037	0.00670
1.66400	-0.00048	-0.00054	0.00097	0.00078	0.00000	0.00000	-0.09813	0.00823	0.07248	0.02218	-0.00037	0.00670
1.66600	-0.00048	-0.00054	0.00097	0.00078	-3.69820	-89.64000	-0.09813	0.00823	0.07248	0.02218	-0.00037	0.00670
1.66800	-0.00048	-0.00054	0.00097	0.00078	-3.69820	-89.55000	-0.09813	0.00823	0.07248	0.02218	-0.00037	0.00670
1.67000	-0.00113	0.00138	0.00075	0.00055	-3.69820	-89.73000	-0.10409	0.01728	0.05228	0.02477	0.00194	0.00738
1.67200	-0.00113	0.00138	0.00075	0.00055	0.00000	0.00000	-0.10409	0.01728	0.05228	0.02477	0.00194	0.00738
1.67400	-0.00113	0.00138	0.00075	0.00055	-3.60800	-89.82000	-0.10409	0.01728	0.05228	0.02477	0.00194	0.00738
1.67600	-0.00113	0.00138	0.00075	0.00055	-3.60800	-89.82000	-0.10409	0.01728	0.05228	0.02477	0.00194	0.00738
1.67800	0.00002	-0.00056	0.00076	0.00069	-3.69820	-89.82000	-0.09072	0.01615	0.06801	0.02039	0.00244	0.00907
1.68000	0.00002	-0.00056	0.00076	0.00069	0.00000	0.00000	-0.09072	0.01615	0.06801	0.02039	0.00244	0.00907
1.68200	0.00002	-0.00056	0.00076	0.00069	-3.78840	-89.91000	-0.09072	0.01615	0.06801	0.02039	0.00244	0.00907
1.68400	0.00002	-0.00056	0.00076	0.00069	-3.87860	-89.82000	-0.09072	0.01615	0.06801	0.02039	0.00244	0.00907
1.68600	0.00046	0.00090	0.00091	0.00044	-3.78840	-89.82000	-0.11438	-0.00494	0.09145	0.02098	-0.00376	0.01225
1.68800	0.00046	0.00090	0.00091	0.00044	-3.78840	-89.82000	-0.11438	-0.00494	0.09145	0.02098	-0.00376	0.01225
1.69000	0.00046	0.00090	0.00091	0.00044	-3.69820	-89.82000	-0.11438	-0.00494	0.09145	0.02098	-0.00376	0.01225
1.69200	0.00046	0.00090	0.00091	0.00044	-3.60800	-89.91000	-0.11438	-0.00494	0.09145	0.02098	-0.00376	0.01225
1.69400	-0.00033	-0.00083	0.00072	0.00039	0.00000	0.00000	-0.08918	-0.00381	0.06647	0.01984	-0.00188	0.01062
1.69600	-0.00033	-0.00083	0.00072	0.00039	-3.69820	-89.82000	-0.08918	-0.00381	0.06647	0.01984	-0.00188	0.01062
1.69800	-0.00033	-0.00083	0.00072	0.00039	-3.69820	-89.91000	-0.08918	-0.00381	0.06647	0.01984	-0.00188	0.01062
1.70000	-0.00033	-0.00083	0.00072	0.00039	-3.78840	-89.91000	-0.08918	-0.00381	0.06647	0.01984	-0.00188	0.01062
1.70200	0.00020	0.00098	0.00065	0.00077	0.00000	0.00000	-0.08445	-0.01111	0.08281	0.01579	-0.00253	0.01105
1.70400	0.00020	0.00098	0.00065	0.00077	-3.78840	-89.82000	-0.08445	-0.01111	0.08281	0.01579	-0.00253	0.01105
1.70600	0.00020	0.00098	0.00065	0.00077	-3.78840	-89.82000	-0.08445	-0.01111	0.08281	0.01579	-0.00253	0.01105
1.70800	0.00020	0.00098	0.00065	0.00077	0.00000	0.00000	-0.08445	-0.01111	0.08281	0.01579	-0.00253	0.01105
1.71000	0.00085	0.00002	0.00071	0.00064	-3.69820	-89.91000	-0.08938	-0.02757	0.10379	0.01684	-0.00407	0.00950
1.71200	0.00085	0.00002	0.00071	0.00064	-3.60800	-89.91000	-0.08938	-0.02757	0.10379	0.01684	-0.00407	0.00950
1.71400	0.00085	0.00002	0.00071	0.00064	-3.60800	-90.00000	-0.08938	-0.02757	0.10379	0.01684	-0.00407	0.00950
1.71600	0.00085	0.00002	0.00071	0.00064	0.00000	0.00000	-0.08938	-0.02757	0.10379	0.01684	-0.00407	0.00950
1.71800	-0.00002	0.00085	0.00050	0.00081	-3.78840	-89.82000	-0.06861	-0.03940	0.09870	0.01064	-0.00734	0.01111
1.72000	-0.00002	0.00085	0.00050	0.00081	-3.78840	-89.82000	-0.06861	-0.03940	0.09870	0.01064	-0.00734	0.01111
1.72200	-0.00002	0.00085	0.00050	0.00081	-3.78840	-89.82000	-0.06861	-0.03940	0.09870	0.01064	-0.00734	0.01111
1.72400	-0.00002	0.00085	0.00050	0.00081	-3.69820	-89.82000	-0.06861	-0.03940	0.09870	0.01064	-0.00734	0.01111
1.72600	-0.00037	-0.00011	0.00052	0.00061	-3.78840	-89.82000	-0.11098	-0.05988	0.09037	0.01043	-0.00546	0.00734
1.72800	-0.00037	-0.00011	0.00052	0.00061	-3.78840	-89.82000	-0.11098	-0.05988	0.09037	0.01043	-0.00546	0.00734
1.73000	-0.00037	-0.00011	0.00052	0.00061	0.00000	0.00000	-0.11098	-0.05988	0.09037	0.01043	-0.00546	0.00734
1.73200	-0.00037	-0.00011	0.00052	0.00061	-3.78840	-89.91000	-0.11098	-0.05988	0.09037	0.01043	-0.00546	0.00734
1.73400	-0.00011	0.00062	0.00086	0.00022	-3.69820	-89.91000	-0.09093	-0.05237	0.08759	0.00524	0.00022	0.00741
1.73600	-0.00011	0.00062	0.00086	0.00022	-3.69820	-89.82000	-0.09093	-0.05237	0.08759	0.00524	0.00022	0.00741
1.73800	-0.00011	0.00062	0.00086	0.00022	0.00000	0.00000	-0.09093	-0.05237	0.08759	0.00524	0.00022	0.00741
1.74000	-0.00011	0.00062	0.00086	0.00022	-3.87860	-89.73000	-0.09093	-0.05237	0.08759	0.00524	0.00022	0.00741
1.74200	0.00099	0.00029	0.00060	0.00004	-3.96880	-89.64000	-0.08856	-0.04136	0.06014	0.00561	-0.00416	0.00639
1.74400	0.00099	0.00029	0.00060	0.00004	-3.87860	-89.64000	-0.08856	-0.04136	0.06014	0.00561	-0.00416	0.00639
1.74600	0.00099	0.00029	0.00060	0.00004	-3.78840	-89.73000	-0.08856	-0.04136	0.06014	0.00561	-0.00416	0.00639
1.74800	0.00099	0.00029	0.00060	0.00004	-3.78840	-89.73000	-0.08856	-0.04136	0.06014	0.00561	-0.00416	0.00639
1.75000	-0.00022	0.00041	0.00068	0.00069	-3.78840	-89.64000	-0.12065	-0.02490	0.04287	0.00577	-0.00981	0.00620
1.75200	-0.00022	0.00041	0.00068	0.00069	0.00000	0.00000	-0.12065	-0.02490	0.04287	0.00577	-0.00981	0.00620
1.75400	-0.00022	0.00041	0.00068	0.00069	-3.78840	-89.73000	-0.12065	-0.02490	0.04287	0.00577	-0.00981	0.00620
1.75600	-0.00022	0.00041	0.00068	0.00069	-3.78840	-89.73000	-0.12065	-0.02490	0.04287	0.00577	-0.00981	0.00620
1.75800	-0.00061	0.00007	0.00068	0.00077	-3.87860	-89.73000	-0.08825	-0.02222	0.00493	0.00361	-0.00888	0.00682
1.76000	-0.00061	0.00007	0.00068	0.00077	0.00000	0.00000	-0.08825	-0.02222	0.00493	0.00361	-0.00888	0.00682
1.76200	-0.00061	0.00007	0.00068	0.00077	-3.78840	-89.64000	-0.08825	-0.02222	0.00493	0.00361	-0.00888	0.00682
1.76400	-0.00061	0.00007	0.00068	0.00077	-3.78840	-89.73000	-0.08825	-0.02222	0.00493	0.00361	-0.00888	0.00682
1.76600	-0.00088	0.00041	0.00081	0.00053	-3.96880	-89.73000	-0.10348	-0.02181	-0.01635	-0.00012	-0.00790	0.00867
1.76800	-0.00088	0.00041	0.00081	0.00053	-3.78840	-89.73000	-0.10348	-0.02181	-0.01635	-0.00012	-0.00790	0.00867
1.77000	-0.00088	0.00041	0.00081	0.00053	-3.78840	-89.73000	-0.10348	-0.02181	-0.01635	-0.00012	-0.00790	0.00867
1.77200	-0.00088	0.00041	0.00081	0.00053	0.00000	0.00000	-0.10348	-0.02181	-0.01635	-0.00012	-0.00790	0.00867
1.77400	0.00101	0.00004	0.00055	0.00020	0.00000	0.00000	-0.05513	-0.06008	-0.04812	0.00315	-0.00956	0.00719
1.77600	0.00101	0.00004	0.00055	0.00020	-3.69820	-89.55000	-0.05513	-0.06008	-0.04812	0.00315	-0.00956	0.00719
1.77800	0.00101	0.00004	0.00055	0.00020	-3.69820	-89.55000	-0.05513	-0.06008	-0.04812	0.00315	-0.00956	0.00719
1.78000	0.00101	0.00004	0.00055	0.00020	-3.69820	-89.64000	-0.05513	-0.06008	-0.04812	0.00315	-0.00956	0.00719
1.78200	-0.00012	0.00044	0.00062	0.00020	0.00000	0.00000	-0.08980	-0.10124	-0.05027	-0.00401	-0.01447	0.00895
1.78400	-0.00012	0.00044	0.00062	0.00020	-3.69820	-89.55000	-0.08980	-0.10124	-0.05027	-0.00401	-0.01447	0.00895
1.78600	-0.00012	0.00044	0.00062	0.00020	-3.78840	-89.64000	-0.08980	-0.10124	-0.05027	-0.00401	-0.01447	0.00895
1.78800	-0.00012	0.00044	0.00062	0.00020	-3.69820	-89.64000	-0.08980	-0.10124	-0.05027	-0.00401	-0.01447	0.00895
1.79000	-0.00052	0.00066	0.00084	0.00088	0.00000	0.00000	-0.08980	-0.10124	-0.05027	-0.00401	-0.01447	0.00895
1.79200	-0.00065	0.00033	0.00056	0.00075	-3.78840	-89.73000	-0.10780	-0.06173	-0.05413	0.00435	-0.00978	0.00812
1.79400	-0.00065	0.00033	0.00056	0.00075	-3.78840	-89.64000	-0.10780	-0.06173	-0.05413	0.00435	-0.00978	0.00812
1.79600	-0.00065	0.00033	0.00056	0.00075	0.00000	0.00000	-0.10780	-0.06173	-0.05413	0.00435	-0.00978	0.00812
1.79800	-0.00065	0.00033	0.00056	0.00075	-3.96880	-89.55000	-0.10780	-0.06173	-0.05413	0.00435	-0.00978	0.00812
1.80000	-0.00044	-0.00043	0.00053	0.00026	-3.96880	-89.73000	-0.06120	-0.07469	-0.04611	0.00697	-0.00225	0.01129
1.80200	-0.00044	-0.00043	0.00053	0.00026	-3.96880	-89.82000	-0.06120	-0.07469	-0.04611	0.00697	-0.00225	0.01129
1.80400	-0.00044	-0.00043	0.00053	0.00026	0.00000	-89.73000	-0.06120	-0.07469	-0.04611	0.00697	-0.00225	0.01129
1.80600	-0.00044	-0.00043	0.00053	0.00026	-3.87860	-89.73000	-0.06120	-0.07469	-0.04611	0.00697	-0.00225	0.01129
1.80800	0.00113	0.00135	0.00055	0.00039	-3.87860	-89.82000	-0.11222	-0.08210	-0.02868	0.00497	-0.00497	0.01133
1.81000	0.00113	0.00135	0.00055	0.00039	0.00000	0.00000	-0.11222	-0.08210	-0.02868	0.00497	-0.00497	0.01133
1.81200	0.00113	0.00135	0.00055	0.00039	0.00000	0.00000	-0.11222	-0.08210	-0.02868	0.00497	-0.00497	0.01133
1.81400	0.00113	0.00135	0.00055	0.00039	-3.78840	-89.82000	-0.11222	-0.08210	-0.02868	0.00497	-0.00497	0.01133
1.81600	0.00020	-0.00004	0.00082	0.00039	-3.78840	-89.73000	-0.11664	-0.04753	-0.03285	0.00966	-0.00194	0.00775
1.81800	0.00020	-0.00004	0.00082	0.00039	-3.78840	-89.64000	-0.11664	-0.04753	-0.03285	0.00966	-0.00194	0.00775
1.82000	0.00020	-0.00004	0.00082	0.00039	-3.78840	-89.64000	-0.11664	-0.04753	-0.03285	0.00966	-0.00194	0.00775
1.82200	0.00020	-0.00004	0.00082	0.00039	-3.78840	-89.73000	-0.11664	-0.04753	-0.03285	0.00966	-0.00194	0.00775
1.82400	-0.00066	0.00119	0.00074	0.00013	-3.87860	-89.73000	-0.11212	-0.09074	0.02005	0.00827	0.00253	0.00642
1.82600	-0.00066	0.00119	0.00074	0.00013	0.00000	0.00000	-0.11212	-0.09074	0.02005	0.00827	0.00253	0.00642
1.82800	-0.00066	0.00119	0.00074	0.00013	-3.87860	-89.64000	-0.11212	-0.09074	0.02005	0.00827	0.00253	0.00642
1.83000	-0.00066	0.00119	0.00074	0.00013	-3.78840	-89.73000	-0.11212	-0.09074	0.02005	0.00827	0.00253	0.00642
1.83200	-0.00095	-0.00017	0.00036	0.00050	-3.69820	-89.64000	-0.13073	-0.05062	0.03331	0.01070	0.00984	0.00827
1.83400	-0.00095	-0.00017	0.00036	0.00050	0.00000	0.00000	-0.13073	-0.05062	0.03331	0.01070	0.00984	0.00827
1.83600	-0.00095	-0.00017	0.00036	0.00050	-3.69820	-89.82000	-0.13073	-0.05062	0.03331	0.01070	0.00984	0.00827
1.83800	-0.00095	-0.00017	0.00036	0.00050	-3.69820	-89.91000	-0.13073	-0.05062	0.03331	0.01070	0.00984	0.00827
1.84000	0.00093	0.00105	0.00066	0.00029	-3.69820	-89.82000	-0.12106	-0.02675	0.10980	0.00913	0.00842	0.00663
1.84200	0.00093	0.00105	0.00066	0.00029	0.00000	0.00000	-0.12106	-0.02675	0.10980	0.00913	0.00842	0.00663
1.84400	0.00093	0.00105	0.00066	0.00029	-3.78840	-89.73000	-0.12106	-0.02675	0.10980	0.00913	0.00842	0.00663
1.84600	0.00093	0.00105	0.00066	0.00029	-3.78840	-89.73000	-0.12106	-0.02675	0.10980	0.00913	0.00842	0.00663
1.84800	0.00002	-0.00055	0.00079	0.00059	0.00000	0.00000	-0.12528	-0.02768	0.16840	0.01277	0.00370	0.00549
1.85000	0.00002	-0.00055	0.00079	0.00059	-3.78840	-89.82000	-0.12528	-0.02768	0.16840	0.01277	0.00370	0.00549
1.85200	0.00002	-0.00055	0.00079	0.00059	-3.78840	-89.73000	-0.12528	-0.02768	0.16840	0.01277	0.00370	0.00549
1.85400	0.00002	-0.00055	0.00079	0.00059	-3.78840	-89.73000	-0.12528	-0.02768	0.16840	0.01277	0.00370	0.00549
1.85600	-0.00052	0.00059	0.00069	0.00036	0.00000	0.00000	-0.07951	0.03745	0.18629	0.02039	-0.00046	0.00691
1.85800	-0.00052	0.00059	0.00069	0.00036	-3.78840	-89.73000	-0.07951	0.03745	0.18629	0.02039	-0.00046	0.00691
1.86000	-0.00052	0.00059	0.00069	0.00036	-3.69820	-89.82000	-0.07951	0.03745	0.18629	0.02039	-0.00046	0.00691
1.86200	-0.00052	0.00059	0.00069	0.00036	-3.78840	-89.73000	-0.07951	0.03745	0.18629	0.02039	-0.00046	0.00691
1.86400	-0.00044	-0.00009	0.00090	0.00021	0.00000	0.00000	-0.10996	0.02551	0.19647	0.01761	-0.00185	0.00768
1.86600	-0.00044	-0.00009	0.00090	0.00021	-3.78840	-89.73000	-0.10996	0.02551	0.19647	0.01761	-0.00185	0.00768
1.86800	-0.00044	-0.00009	0.00090	0.00021	-3.78840	-89.82000	-0.10996	0.02551	0.19647	0.01761	-0.00185	0.00768
1.87000	-0.00044	-0.00009	0.00090	0.00021	-3.96880	-89.91000	-0.10996	0.02551	0.19647	0.01761	-0.00185	0.00768
1.87200	0.00107	0.00069	0.00076	0.00052	-3.87860	-89.91000	-0.07365	0.01070	0.22192	0.01836	-0.00460	0.00954
1.87400	0.00107	0.00069	0.00076	0.00052	-3.78840	-89.91000	-0.07365	0.01070	0.22192	0.01836	-0.00460	0.00954
1.87600	0.00107	0.00069	0.00076	0.00052	-3.69820	-90.09000	-0.07365	0.01070	0.22192	0.01836	-0.00460	0.00954
1.87800	0.00107	0.00069	0.00076	0.00052	0.00000	0.00000	-0.07365	0.01070	0.22192	0.01836	-0.00460	0.00954
1.88000	-0.00038	-0.00043	0.00085	0.00082	-3.78840	-90.00000	-0.04845	0.01255	0.27096	0.01873	-0.01231	0.01077
1.88200	-0.00038	-0.00043	0.00085	0.00082	-3.87860	-90.00000	-0.04845	0.01255	0.27096	0.01873	-0.01231	0.01077
1.88400	-0.00038	-0.00043	0.00085	0.00082	-3.87860	-89.82000	-0.04845	0.01255	0.27096	0.01873	-0.01231	0.01077
1.88600	-0.00038	-0.00043	0.00085	0.00082	0.00000	0.00000	-0.04845	0.01255	0.27096	0.01873	-0.01231	0.01077
1.88800	0.00002	0.00082	0.00067	0.00060	-3.87860	-89.73000	-0.06974	-0.00309	0.27666	0.01866	-0.01749	0.01012
1.89000	0.00002	0.00082	0.00067	0.00060	-3.78840	-89.82000	-0.06974	-0.00309	0.27666	0.01866	-0.01749	0.01012
1.89200	0.00002	0.00082	0.00067	0.00060	0.00000	0.00000	-0.06974	-0.00309	0.27666	0.01866	-0.01749	0.01012
1.89400	0.00002	0.00082	0.00067	0.00060	-3.60800	-89.82000	-0.06974	-0.00309	0.27666	0.01866	-0.01749	0.01012
1.89600	0.00001	-0.00039	0.00076	0.00034	-3.69820	-89.91000	-0.02407	-0.02088	0.26772	0.01891	-0.01909	0.01210
1.89800	0.00001	-0.00039	0.00076	0.00034	-3.60800	-89.91000	-0.02407	-0.02088	0.26772	0.01891	-0.01909	0.01210
1.90000	0.00001	-0.00039	0.00076	0.00034	0.00000	0.00000	-0.02407	-0.02088	0.26772	0.01891	-0.01909	0.01210
1.90200	0.00001	-0.00039	0.00076	0.00034	-3.78840	-89.91000	-0.02407	-0.02088	0.26772	0.01891	-0.01909	0.01210
1.90400	0.00039	0.00110	0.00071	0.00059	-3.78840	-90.00000	-0.01018	-0.06049	0.24197	0.01188	-0.02754	0.00790
1.90600	0.00039	0.00110	0.00071	0.00059	-3.78840	-89.91000	-0.01018	-0.06049	0.24197	0.01188	-0.02754	0.00790
1.90800	0.00039	0.00110	0.00071	0.00059	0.00000	0.00000	-0.01018	-0.06049	0.24197	0.01188	-0.02754	0.00790
1.91000	0.00039	0.00110	0.00071	0.00059	-3.78840	-89.73000	-0.01018	-0.06049	0.24197	0.01188	-0.02754	0.00790
1.91200	-0.00049	0.00002	0.00076	0.00009	-3.78840	-89.73000	-0.01029	-0.04712	0.19493	0.01438	-0.03143	0.00784
1.91400	-0.00049	0.00002	0.00076	0.00009	-3.69820	-89.82000	-0.01029	-0.04712	0.19493	0.01438	-0.03143	0.00784
1.91600	-0.00049	0.00002	0.00076	0.00009	-3.60800	-89.82000	-0.01029	-0.04712	0.19493	0.01438	-0.03143	0.00784
1.91800	-0.00049	0.00002	0.00076	0.00009	-3.69820	-89.82000	-0.01029	-0.04712	0.19493	0.01438	-0.03143	0.00784
1.92000	-0.00022	0.00121	0.00100	0.00017	-3.69820	-89.73000	-0.01029	-0.04712	0.19493	0.01438	-0.03143	0.00784
1.92200	-0.00062	-0.00010	0.00043	0.00024	0.00000	0.00000	0.01574	-0.03683	0.16871	0.01468	-0.03806	0.00525
1.92400	-0.00062	-0.00010	0.00043	0.00024	-3.69820	-89.73000	0.01574	-0.03683	0.16871	0.01468	-0.03806	0.00525
1.92600	-0.00062	-0.00010	0.00043	0.00024	-3.69820	-89.82000	0.01574	-0.03683	0.16871	0.01468	-0.03806	0.00525
1.92800	-0.00062	-0.00010	0.00043	0.00024	-3.87860	-89.82000	0.01574	-0.03683	0.16871	0.01468	-0.03806	0.00525
1.93000	0.00074	0.00009	0.00065	0.00046	-3.87860	-89.91000	-0.00381	-0.05123	0.13633	0.01373	-0.03670	0.00383
1.93200	0.00074	0.00009	0.00065	0.00046	-3.78840	-89.91000	-0.00381	-0.05123	0.13633	0.01373	-0.03670	0.00383
1.93400	0.00074	0.00009	0.00065	0.00046	-3.69820	-89.91000	-0.00381	-0.05123	0.13633	0.01373	-0.03670	0.00383
1.93600	0.00074	0.00009	0.00065	0.00046	0.00000	0.00000	-0.00381	-0.05123	0.13633	0.01373	-0.03670	0.00383
1.93800	-0.00051	0.00023	0.00061	0.00074	-3.69820	-89.82000	0.01101	-0.03714	0.08652	0.01151	-0.03223	0.00262
1.94000	-0.00051	0.00023	0.00061	0.00074	-3.78840	-89.64000	0.01101	-0.03714	0.08652	0.01151	-0.03223	0.00262
1.94200	-0.00051	0.00023	0.00061	0.00074	-3.87860	-89.73000	0.01101	-0.03714	0.08652	0.01151	-0.03223	0.00262
1.94400	-0.00051	0.00023	0.00061	0.00074	0.00000	0.00000	0.01101	-0.03714	0.08652	0.01151	-0.03223	0.00262
1.94600	-0.00073	0.00012	0.00091	0.00051	-3.96880	-89.73000	-0.02829	-0.04969	0.04426	0.01499	-0.03461	0.00472
1.94800	-0.00073	0.00012	0.00091	0.00051	-3.96880	-89.64000	-0.02829	-0.04969	0.04426	0.01499	-0.03461	0.00472
1.95000	-0.00073	0.00012	0.00091	0.00051	-3.96880	-89.64000	-0.02829	-0.04969	0.04426	0.01499	-0.03461	0.00472
1.95200	-0.00073	0.00012	0.00091	0.00051	-3.87860	-89.64000	-0.02829	-0.04969	0.04426	0.01499	-0.03461	0.00472
1.95400	-0.00016	-0.00006	0.00098	0.00072	-3.96880	-89.73000	-0.04207	-0.04877	0.01912	0.01135	-0.02714	0.00423
1.95600	-0.00083	-0.00020	0.00088	0.00038	-3.87860	-89.82000	-0.04207	-0.04877	0.01912	0.01135	-0.02714	0.00423
1.95800	-0.00083	-0.00020	0.00088	0.00038	0.00000	0.00000	-0.04207	-0.04877	0.01912	0.01135	-0.02714	0.00423
1.96000	-0.00083	-0.00020	0.00088	0.00038	-3.87860	-89.73000	-0.04207	-0.04877	0.01912	0.01135	-0.02714	0.00423
1.96200	-0.00083	-0.00020	0.00088	0.00038	-3.87860	-89.73000	-0.04207	-0.04877	0.01912	0.01135	-0.02714	0.00423
1.96400	0.00149	0.00088	0.00089	0.00004	-3.87860	-89.73000	-0.06192	-0.02490	-0.01727	0.00941	-0.01872	0.00741
1.96600	0.00149	0.00088	0.00089	0.00004	0.00000	0.00000	-0.06192	-0.02490	-0.01727	0.00941	-0.01872	0.00741
1.96800	0.00149	0.00088	0.00089	0.00004	-3.87860	-89.73000	-0.06192	-0.02490	-0.01727	0.00941	-0.01872	0.00741
1.97000	0.00149	0.00088	0.00089	0.00004	-3.87860	-89.73000	-0.06192	-0.02490	-0.01727	0.00941	-0.01872	0.00741
1.97200	-0.00054	-0.00038	0.00060	0.00020	-3.87860	-89.73000	-0.09710	-0.01461	-0.02190	0.01462	-0.00876	0.01040
1.97400	-0.00054	-0.00038	0.00060	0.00020	-3.87860	-89.73000	-0.09710	-0.01461	-0.02190	0.01462	-0.00876	0.01040
1.97600	-0.00054	-0.00038	0.00060	0.00020	-3.78840	-89.73000	-0.09710	-0.01461	-0.02190	0.01462	-0.00876	0.01040
1.97800	-0.00054	-0.00038	0.00060	0.00020	-3.87860	-89.73000	-0.09710	-0.01461	-0.02190	0.01462	-0.00876	0.01040
1.98000	-0.00039	0.00067	0.00072	0.00049	0.00000	0.00000	-0.10646	0.01317	-0.03053	0.02045	-0.00521	0.01262
1.98200	-0.00039	0.00067	0.00072	0.00049	-3.87860	-89.82000	-0.10646	0.01317	-0.03053	0.02045	-0.00521	0.01262
1.98400	-0.00039	0.00067	0.00072	0.00049	-3.87860	-89.73000	-0.10646	0.01317	-0.03053	0.02045	-0.00521	0.01262
1.98600	-0.00039	0.00067	0.00072	0.00049	-3.96880	-89.82000	-0.10646	0.01317	-0.03053	0.02045	-0.00521	0.01262
1.98800	-0.00049	-0.00029	0.00053	0.00061	0.00000	0.00000	-0.12158	-0.00586	-0.05058	0.01660	-0.00225	0.01398
1.99000	0.00278	0.00050	0.00073	0.00037	-3.78840	-89.73000	-0.12158	-0.00586	-0.05058	0.01660	-0.00225	0.01398
1.99200	0.00278	0.00050	0.00073	0.00037	-3.87860	-89.73000	-0.12158	-0.00586	-0.05058	0.01660	-0.00225	0.01398
1.99400	0.00278	0.00050	0.00073	0.00037	-3.78840	-89.82000	-0.12158	-0.00586	-0.05058	0.01660	-0.00225	0.01398
1.99600	0.00278	0.00050	0.00073	0.00037	0.00000	0.00000	-0.12158	-0.00586	-0.05058	0.01660	-0.00225	0.01398
1.99800	0.00020	0.00091	0.00083	0.00016	-3.78840	-89.73000	-0.10687	-0.01955	-0.04395	0.01493	0.00373	0.01460
2.00000	0.00020	0.00091	0.00083	0.00016	-3.78840	-89.64000	-0.10687	-0.01955	-0.04395	0.01493	0.00373	0.01460
2.00200	0.00020	0.00091	0.00083	0.00016	0.00000	0.00000	-0.10687	-0.01955	-0.04395	0.01493	0.00373	0.01460
2.00400	0.00020	0.00091	0.00083	0.00016	-3.87860	-89.73000	-0.10687	-0.01955	-0.04395	0.01493	0.00373	0.01460
2.00600	-0.00024	-0.00018	0.00045	0.00097	-3.78840	-89.82000	-0.10687	-0.01955	-0.04395	0.01493	0.00373	0.01460
2.00800	-0.00055	0.00201	0.00104	0.00030	-3.87860	-89.82000	-0.15346	-0.00093	-0.03377	0.01817	-0.00068	0.00935
2.01000	-0.00055	0.00201	0.00104	0.00030	0.00000	0.00000	-0.15346	-0.00093	-0.03377	0.01817	-0.00068	0.00935
2.01200	-0.00055	0.00201	0.00104	0.00030	-3.87860	-89.82000	-0.15346	-0.00093	-0.03377	0.01817	-0.00068	0.00935
2.01400	-0.00055	0.00201	0.00104	0.00030	-3.87860	-89.73000	-0.15346	-0.00093	-0.03377	0.01817	-0.00068	0.00935
2.01600	-0.00004	0.00018	0.00064	0.00066	-3.87860	-89.64000	-0.11397	-0.00257	-0.01187	0.02372	-0.00151	0.01071
2.01800	-0.00004	0.00018	0.00064	0.00066	0.00000	0.00000	-0.11397	-0.00257	-0.01187	0.02372	-0.00151	0.01071
2.02000	-0.00004	0.00018	0.00064	0.00066	-3.87860	-89.73000	-0.11397	-0.00257	-0.01187	0.02372	-0.00151	0.01071
2.02200	-0.00004	0.00018	0.00064	0.00066	-3.87860	-89.82000	-0.11397	-0.00257	-0.01187	0.02372	-0.00151	0.01071
2.02400	0.00111	0.00050	0.00047	0.00012	-3.87860	-89.82000	-0.11397	-0.00257	-0.01187	0.02372	-0.00151	0.01071
2.02600	0.00013	0.00126	0.00119	0.00017	-3.96880	-89.82000	-0.10944	-0.02212	0.03177	0.01805	-0.00382	0.00744
2.02800	0.00013	0.00126	0.00119	0.00017	-3.96880	-89.91000	-0.10944	-0.02212	0.03177	0.01805	-0.00382	0.00744
2.03000	0.00013	0.00126	0.00119	0.00017	-3.96880	-89.91000	-0.10944	-0.02212	0.03177	0.01805	-0.00382	0.00744
2.03200	0.00013	0.00126	0.00119	0.00017	0.00000	0.00000	-0.10944	-0.02212	0.03177	0.01805	-0.00382	0.00744
2.03400	0.00011	-0.00052	0.00068	0.00099	-3.87860	-89.73000	-0.09473	-0.00813	0.06030	0.01934	-0.00768	0.00383
2.03600	0.00011	-0.00052	0.00068	0.00099	-3.78840	-89.91000	-0.09473	-0.00813	0.06030	0.01934	-0.00768	0.00383
2.03800	0.00011	-0.00052	0.00068	0.00099	-3.78840	-89.82000	-0.09473	-0.00813	0.06030	0.01934	-0.00768	0.00383
2.04000	0.00011	-0.00052	0.00068	0.00099	0.00000	0.00000	-0.09473	-0.00813	0.06030	0.01934	-0.00768	0.00383
2.04200	-0.00017	0.00106	0.00084	0.00049	-3.69820	-89.73000	-0.04495	-0.03251	0.10225	0.01894	-0.01863	0.00173
2.04400	-0.00069	-0.00027	0.00093	0.00033	-3.78840	-89.64000	-0.04495	-0.03251	0.10225	0.01894	-0.01863	0.00173
2.04600	-0.00069	-0.00027	0.00093	0.00033	-3.87860	-89.64000	-0.04495	-0.03251	0.10225	0.01894	-0.01863	0.00173
2.04800	-0.00069	-0.00027	0.00093	0.00033	0.00000	0.00000	-0.04495	-0.03251	0.10225	0.01894	-0.01863	0.00173
2.05000	-0.00069	-0.00027	0.00093	0.00033	-3.87860	-89.64000	-0.04495	-0.03251	0.10225	0.01894	-0.01863	0.00173
2.05200	0.00063	-0.00033	0.00086	0.00054	-3.78840	-89.64000	-0.04454	0.00144	0.13232	0.01919	-0.03198	0.00333
2.05400	0.00063	-0.00033	0.00086	0.00054	0.00000	0.00000	-0.04454	0.00144	0.13232	0.01919	-0.03198	0.00333
2.05600	0.00063	-0.00033	0.00086	0.00054	-3.87860	-89.55000	-0.04454	0.00144	0.13232	0.01919	-0.03198	0.00333
2.05800	0.00063	-0.00033	0.00086	0.00054	-3.87860	-89.55000	-0.04454	0.00144	0.13232	0.01919	-0.03198	0.00333
2.06000	0.00018	0.00110	0.00069	0.00017	-3.78840	-89.64000	0.01131	0.03169	0.11967	0.02480	-0.03695	0.00494
2.06200	0.00057	-0.00015	0.00093	0.00005	0.00000	0.00000	0.01131	0.03169	0.11967	0.02480	-0.03695	0.00494
2.06400	0.00057	-0.00015	0.00093	0.00005	-3.78840	-89.82000	0.01131	0.03169	0.11967	0.02480	-0.03695	0.00494
2.06600	0.00057	-0.00015	0.00093	0.00005	-3.78840	-89.73000	0.01131	0.03169	0.11967	0.02480	-0.03695	0.00494
2.06800	0.00057	-0.00015	0.00093	0.00005	-3.78840	-89.73000	0.01131	0.03169	0.11967	0.02480	-0.03695	0.00494
2.07000	-0.00051	0.00035	0.00082	0.00048	0.00000	0.00000	0.02006	-0.00648	0.15838	0.02243	-0.04438	0.00879
2.07200	-0.00051	0.00035	0.00082	0.00048	-3.87860	-89.91000	0.02006	-0.00648	0.15838	0.02243	-0.04438	0.00879
2.07400	-0.00051	0.00035	0.00082	0.00048	-3.78840	-89.91000	0.02006	-0.00648	0.15838	0.02243	-0.04438	0.00879
2.07600	-0.00051	0.00035	0.00082	0.00048	-3.78840	-89.82000	0.02006	-0.00648	0.15838	0.02243	-0.04438	0.00879
2.07800	-0.00018	0.00049	0.00094	0.00061	-3.60800	-89.91000	-0.01131	-0.02037	0.13987	0.01675	-0.03818	0.00975
2.08000	-0.00018	0.00049	0.00094	0.00061	-3.69820	-89.91000	-0.01131	-0.02037	0.13987	0.01675	-0.03818	0.00975
2.08200	-0.00018	0.00049	0.00094	0.00061	0.00000	0.00000	-0.01131	-0.02037	0.13987	0.01675	-0.03818	0.00975
2.08400	-0.00018	0.00049	0.00094	0.00061	0.00000	0.00000	-0.01131	-0.02037	0.13987	0.01675	-0.03818	0.00975
2.08600	0.00118	0.00035	0.00075	0.00059	-3.69820	-89.73000	-0.00247	-0.03786	0.11936	0.01231	-0.03294	0.01302
2.08800	0.00118	0.00035	0.00075	0.00059	-3.78840	-89.73000	-0.00247	-0.03786	0.11936	0.01231	-0.03294	0.01302
2.09000	0.00118	0.00035	0.00075	0.00059	-3.78840	-89.73000	-0.00247	-0.03786	0.11936	0.01231	-0.03294	0.01302
2.09200	0.00118	0.00035	0.00075	0.00059	0.00000	0.00000	-0.00247	-0.03786	0.11936	0.01231	-0.03294	0.01302
2.09400	-0.00027	0.00044	0.00061	0.00038	-3.69820	-89.64000	-0.00010	-0.05586	0.13725	0.01555	-0.02788	0.01324
2.09600	-0.00027	0.00044	0.00061	0.00038	-3.69820	-89.73000	-0.00010	-0.05586	0.13725	0.01555	-0.02788	0.01324
2.09800	-0.00027	0.00044	0.00061	0.00038	-3.78840	-89.82000	-0.00010	-0.05586	0.13725	0.01555	-0.02788	0.01324
2.10000	-0.00027	0.00044	0.00061	0.00038	-3.78840	-89.82000	-0.00010	-0.05586	0.13725	0.01555	-0.02788	0.01324
2.10200	-0.00105	0.00084	0.00062	0.00042	-3.69820	-89.73000	-0.04135	-0.05175	0.12414	0.01030	-0.03057	0.01336
2.10400	-0.00105	0.00084	0.00062	0.00042	-3.78840	-89.82000	-0.04135	-0.05175	0.12414	0.01030	-0.03057	0.01336
2.10600	-0.00105	0.00084	0.00062	0.00042	0.00000	0.00000	-0.04135	-0.05175	0.12414	0.01030	-0.03057	0.01336
2.10800	-0.00105	0.00084	0.00062	0.00042	-3.87860	-89.73000	-0.04135	-0.05175	0.12414	0.01030	-0.03057	0.01336
2.11000	-0.00026	0.00027	0.00074	0.00028	-3.78840	-89.82000	-0.03919	0.00710	0.08528	0.01327	-0.02637	0.01379
2.11200	-0.00026	0.00027	0.00074	0.00028	-3.78840	-89.82000	-0.03919	0.00710	0.08528	0.01327	-0.02637	0.01379
2.11400	-0.00026	0.00027	0.00074	0.00028	0.00000	0.00000	-0.03919	0.00710	0.08528	0.01327	-0.02637	0.01379
2.11600	-0.00026	0.00027	0.00074	0.00028	-3.78840	-89.73000	-0.03919	0.00710	0.08528	0.01327	-0.02637	0.01379
2.11800	0.00183	0.00045	0.00065	0.00050	-3.87860	-89.64000	0.00761	-0.00545	0.09253	0.01811	-0.03057	0.01179
2.12000	0.00183	0.00045	0.00065	0.00050	0.00000	0.00000	0.00761	-0.00545	0.09253	0.01811	-0.03057	0.01179
2.12200	0.00183	0.00045	0.00065	0.00050	-4.05900	-89.73000	0.00761	-0.00545	0.09253	0.01811	-0.03057	0.01179
2.12400	0.00183	0.00045	0.00065	0.00050	-3.96880	-89.73000	0.00761	-0.00545	0.09253	0.01811	-0.03057	0.01179
2.12600	0.00004	0.00002	0.00096	0.00000	-3.87860	-89.82000	-0.03117	-0.04949	0.07942	0.01058	-0.03658	0.01018
2.12800	0.00004	0.00002	0.00096	0.00000	0.00000	0.00000	-0.03117	-0.04949	0.07942	0.01058	-0.03658	0.01018
2.13000	0.00004	0.00002	0.00096	0.00000	-3.87860	-89.64000	-0.03117	-0.04949	0.07942	0.01058	-0.03658	0.01018
2.13200	0.00004	0.00002	0.00096	0.00000	-3.87860	-89.73000	-0.03117	-0.04949	0.07942	0.01058	-0.03658	0.01018
2.13400	-0.00007	0.00027	0.00072	0.00076	-3.78840	-89.82000	-0.07128	-0.04897	0.07834	0.00231	-0.03100	0.00623
2.13600	-0.00007	0.00027	0.00072	0.00076	0.00000	0.00000	-0.07128	-0.04897	0.07834	0.00231	-0.03100	0.00623
2.13800	-0.00007	0.00027	0.00072	0.00076	-3.60800	-89.82000	-0.07128	-0.04897	0.07834	0.00231	-0.03100	0.00623
2.14000	-0.00007	0.00027	0.00072	0.00076	-3.51780	-89.82000	-0.07128	-0.04897	0.07834	0.00231	-0.03100	0.00623
2.14200	0.00018	-0.00002	0.00101	0.00016	0.00000	0.00000	-0.02088	-0.05535	0.07186	0.00583	-0.02097	0.00222
2.14400	0.00018	-0.00002	0.00101	0.00016	-3.69820	-89.73000	-0.02088	-0.05535	0.07186	0.00583	-0.02097	0.00222
2.14600	0.00018	-0.00002	0.00101	0.00016	-3.78840	-89.82000	-0.02088	-0.05535	0.07186	0.00583	-0.02097	0.00222
2.14800	0.00018	-0.00002	0.00101	0.00016	0.00000	0.00000	-0.02088	-0.05535	0.07186	0.00583	-0.02097	0.00222
2.15000	0.00169	0.00029	0.00059	0.00017	0.00000	0.00000	-0.04577	-0.06893	0.10147	0.00916	-0.02208	0.00216
2.15200	0.00048	0.00050	0.00066	0.00112	-3.87860	-89.64000	-0.04577	-0.06893	0.10147	0.00916	-0.02208	0.00216
2.15400	0.00048	0.00050	0.00066	0.00112	-3.69820	-89.64000	-0.04577	-0.06893	0.10147	0.00916	-0.02208	0.00216
2.15600	0.00048	0.00050	0.00066	0.00112	0.00000	0.00000	-0.04577	-0.06893	0.10147	0.00916	-0.02208	0.00216
2.15800	0.00048	0.00050	0.00066	0.00112	0.00000	0.00000	-0.04577	-0.06893	0.10147	0.00916	-0.02208	0.00216
2.16000	-0.00061	0.00009	0.00065	0.00068	-3.78840	-89.73000	-0.07858	-0.03663	0.08328	0.00305	-0.03063	0.00447
2.16200	-0.00061	0.00009	0.00065	0.00068	-3.78840	-89.64000	-0.07858	-0.03663	0.08328	0.00305	-0.03063	0.00447
2.16400	-0.00061	0.00009	0.00065	0.00068	0.00000	-89.82000	-0.07858	-0.03663	0.08328	0.00305	-0.03063	0.00447
2.16600	-0.00061	0.00009	0.00065	0.00068	-3.69820	-89.82000	-0.07858	-0.03663	0.08328	0.00305	-0.03063	0.00447
2.16800	-0.00093	0.00130	0.00085	0.00013	-3.78840	-89.73000	-0.03785	-0.04650	0.10811	0.00358	-0.03020	0.00543
2.17000	-0.00093	0.00130	0.00085	0.00013	-3.78840	-89.64000	-0.03785	-0.04650	0.10811	0.00358	-0.03020	0.00543
2.17200	-0.00093	0.00130	0.00085	0.00013	-3.78840	-89.82000	-0.03785	-0.04650	0.10811	0.00358	-0.03020	0.00543
2.17400	-0.00093	0.00130	0.00085	0.00013	-3.78840	-89.82000	-0.03785	-0.04650	0.10811	0.00358	-0.03020	0.00543
2.17600	-0.00018	-0.00010	0.00117	0.00009	-3.69820	-89.91000	-0.08404	-0.07130	0.07156	0.00592	-0.01672	0.00895
2.17800	-0.00018	-0.00010	0.00117	0.00009	-3.78840	-89.91000	-0.08404	-0.07130	0.07156	0.00592	-0.01672	0.00895
2.18000	-0.00018	-0.00010	0.00117	0.00009	-3.78840	-89.91000	-0.08404	-0.07130	0.07156	0.00592	-0.01672	0.00895
2.18200	-0.00018	-0.00010	0.00117	0.00009	-3.87860	-89.91000	-0.08404	-0.07130	0.07156	0.00592	-0.01672	0.00895
2.18400	0.00088	0.00079	0.00025	0.00049	-3.87860	-89.91000	-0.07828	-0.03755	0.08158	0.00290	-0.01588	0.01000
2.18600	0.00088	0.00079	0.00025	0.00049	0.00000	0.00000	-0.07828	-0.03755	0.08158	0.00290	-0.01588	0.01000
2.18800	0.00088	0.00079	0.00025	0.00049	-3.87860	-89.73000	-0.07828	-0.03755	0.08158	0.00290	-0.01588	0.01000
2.19000	0.00088	0.00079	0.00025	0.00049	-3.78840	-89.73000	-0.07828	-0.03755	0.08158	0.00290	-0.01588	0.01000
2.19200	-0.00006	-0.00026	0.00049	0.00048	-3.78840	-89.73000	-0.08074	-0.06060	0.11443	-0.00151	-0.01992	0.01256
2.19400	-0.00006	-0.00026	0.00049	0.00048	0.00000	0.00000	-0.08074	-0.06060	0.11443	-0.00151	-0.01992	0.01256
2.19600	-0.00006	-0.00026	0.00049	0.00048	-3.78840	-89.73000	-0.08074	-0.06060	0.11443	-0.00151	-0.01992	0.01256
2.19800	-0.00006	-0.00026	0.00049	0.00048	-3.69820	-89.82000	-0.08074	-0.06060	0.11443	-0.00151	-0.01992	0.01256
2.20000	-0.00032	0.00143	0.00064	0.00018	-3.78840	-89.82000	-0.07941	-0.06595	0.10733	0.00524	-0.02329	0.01247
2.20200	-0.00032	0.00143	0.00064	0.00018	0.00000	0.00000	-0.07941	-0.06595	0.10733	0.00524	-0.02329	0.01247
2.20400	-0.00032	0.00143	0.00064	0.00018	-3.78840	-89.82000	-0.07941	-0.06595	0.10733	0.00524	-0.02329	0.01247
2.20600	-0.00032	0.00143	0.00064	0.00018	-3.96880	-89.82000	-0.07941	-0.06595	0.10733	0.00524	-0.02329	0.01247
2.20800	-0.00022	-0.00017	0.00065	0.00019	0.00000	0.00000	-0.08949	-0.04537	0.06755	0.00185	-0.02464	0.01444
2.21000	-0.00022	-0.00017	0.00065	0.00019	-3.96880	-89.73000	-0.08949	-0.04537	0.06755	0.00185	-0.02464	0.01444
2.21200	-0.00022	-0.00017	0.00065	0.00019	-3.87860	-89.73000	-0.08949	-0.04537	0.06755	0.00185	-0.02464	0.01444
2.21400	-0.00022	-0.00017	0.00065	0.00019	-3.78840	-89.55000	-0.08949	-0.04537	0.06755	0.00185	-0.02464	0.01444
2.21600	0.00024	0.00188	0.00066	0.00020	0.00000	0.00000	-0.08949	-0.04537	0.06755	0.00185	-0.02464	0.01444
2.21800	-0.00055	-0.00021	0.00084	0.00002	-3.96880	-89.64000	-0.10327	-0.07140	0.10240	0.00164	-0.01548	0.01565
2.22000	-0.00055	-0.00021	0.00084	0.00002	-4.05900	-89.82000	-0.10327	-0.07140	0.10240	0.00164	-0.01548	0.01565
2.22200	-0.00055	-0.00021	0.00084	0.00002	-4.05900	-89.82000	-0.10327	-0.07140	0.10240	0.00164	-0.01548	0.01565
2.22400	-0.00055	-0.00021	0.00084	0.00002	0.00000	0.00000	-0.10327	-0.07140	0.10240	0.00164	-0.01548	0.01565
2.22600	-0.00006	0.00021	0.00099	0.00044	-3.78840	-89.73000	-0.10327	-0.07140	0.10240	0.00164	-0.01548	0.01565
2.22800	-0.00018	0.00137	0.00093	0.00081	-3.87860	-89.82000	-0.06099	-0.10453	0.11767	-0.00438	-0.01061	0.00626
2.23000	-0.00018	0.00137	0.00093	0.00081	-3.96880	-89.82000	-0.06099	-0.10453	0.11767	-0.00438	-0.01061	0.00626
2.23200	-0.00018	0.00137	0.00093	0.00081	-3.96880	-89.82000	-0.06099	-0.10453	0.11767	-0.00438	-0.01061	0.00626
2.23400	-0.00018	0.00137	0.00093	0.00081	-3.96880	-89.82000	-0.06099	-0.10453	0.11767	-0.00438	-0.01061	0.00626
2.23600	-0.00072	0.00006	0.00058	0.00042	-3.96880	-89.73000	-0.08589	-0.06574	0.11782	-0.00188	-0.02856	0.00565
2.23800	-0.00072	0.00006	0.00058	0.00042	0.00000	0.00000	-0.08589	-0.06574	0.11782	-0.00188	-0.02856	0.00565
2.24000	-0.00072	0.00006	0.00058	0.00042	-3.87860	-89.73000	-0.08589	-0.06574	0.11782	-0.00188	-0.02856	0.00565
2.24200	-0.00072	0.00006	0.00058	0.00042	-3.78840	-89.82000	-0.08589	-0.06574	0.11782	-0.00188	-0.02856	0.00565
2.24400	0.00100	0.00110	0.00034	0.00036	-3.69820	0.00000	-0.08589	-0.06574	0.11782	-0.00080	-0.03464	0.00518
2.24600	-0.00028	0.00017	0.00107	-0.00001	0.00000	0.00000	-0.03569	-0.03467	0.09484	-0.00080	-0.03464	0.00518
2.24800	-0.00028	0.00017	0.00107	-0.00001	-3.78840	-89.82000	-0.03569	-0.03467	0.09484	-0.00080	-0.03464	0.00518
2.25000	-0.00028	0.00017	0.00107	-0.00001	-3.78840	-89.82000	-0.03569	-0.03467	0.09484	-0.00080	-0.03464	0.00518
2.25200	-0.00028	0.00017	0.00107	-0.00001	0.00000	0.00000	-0.03569	-0.03467	0.09484	-0.00080	-0.03464	0.00518
2.25400	0.00009	-0.00001	0.00069	0.00013	-3.78840	-89.73000	-0.03569	-0.03467	0.09484	-0.00080	-0.03464	0.00518
2.25600	0.00017	-0.00065	0.00093	0.00000	-3.87860	-89.73000	-0.03374	-0.02438	0.04997	0.00401	-0.04087	0.00549
2.25800	0.00017	-0.00065	0.00093	0.00000	-3.87860	-89.82000	-0.03374	-0.02438	0.04997	0.00401	-0.04087	0.00549
2.26000	0.00017	-0.00065	0.00093	0.00000	0.00000	0.00000	-0.03374	-0.02438	0.04997	0.00401	-0.04087	0.00549
2.26200	0.00017	-0.00065	0.00093	0.00000	-3.78840	-89.73000	-0.03374	-0.02438	0.04997	0.00401	-0.04087	0.00549
2.26400	-0.00032	0.00098	0.00080	0.00002	-3.78840	-89.64000	-0.00144	-0.00329	0.04395	0.00398	-0.04343	0.00580
2.26600	-0.00032	0.00098	0.00080	0.00002	-3.78840	-89.73000	-0.00144	-0.00329	0.04395	0.00398	-0.04343	0.00580
2.26800	-0.00032	0.00098	0.00080	0.00002	-3.78840	-89.73000	-0.00144	-0.00329	0.04395	0.00398	-0.04343	0.00580
2.27000	-0.00032	0.00098	0.00080	0.00002	-3.87860	-89.73000	-0.00144	-0.00329	0.04395	0.00398	-0.04343	0.00580
2.27200	0.00062	-0.00040	0.00061	0.00041	-3.87860	-89.82000	-0.02448	-0.07685	0.03161	-0.00049	-0.04682	0.00657
2.27400	0.00062	-0.00040	0.00061	0.00041	0.00000	0.00000	-0.02448	-0.07685	0.03161	-0.00049	-0.04682	0.00657
2.27600	0.00062	-0.00040	0.00061	0.00041	-3.69820	-89.73000	-0.02448	-0.07685	0.03161	-0.00049	-0.04682	0.00657
2.27800	0.00062	-0.00040	0.00061	0.00041	-3.78840	-89.73000	-0.02448	-0.07685	0.03161	-0.00049	-0.04682	0.00657
2.28000	0.00035	0.00121	0.00008	0.00062	-3.78840	-89.73000	0.01101	-0.09095	-0.00416	-0.00324	-0.04192	0.00759
2.28200	0.00035	0.00121	0.00008	0.00062	0.00000	0.00000	0.01101	-0.09095	-0.00416	-0.00324	-0.04192	0.00759
2.28400	0.00035	0.00121	0.00008	0.00062	-3.96880	-89.73000	0.01101	-0.09095	-0.00416	-0.00324	-0.04192	0.00759
2.28600	0.00035	0.00121	0.00008	0.00062	-3.96880	-89.73000	0.01101	-0.09095	-0.00416	-0.00324	-0.04192	0.00759
2.28800	-0.00076	0.00016	0.00053	0.00025	-3.87860	-89.73000	-0.01543	-0.09568	-0.00046	-0.00370	-0.04324	0.01099
2.29000	-0.00076	0.00016	0.00053	0.00025	0.00000	0.00000	-0.01543	-0.09568	-0.00046	-0.00370	-0.04324	0.01099
2.29200	-0.00076	0.00016	0.00053	0.00025	-3.78840	-89.73000	-0.01543	-0.09568	-0.00046	-0.00370	-0.04324	0.01099
2.29400	-0.00076	0.00016	0.00053	0.00025	-3.96880	-89.73000	-0.01543	-0.09568	-0.00046	-0.00370	-0.04324	0.01099
2.29600	0.00021	0.00067	0.00064	0.00041	-4.05900	-89.73000	-0.01018	-0.09558	0.00339	0.00305	-0.03859	0.00907
2.29800	0.00021	0.00067	0.00064	0.00041	-3.87860	-89.64000	-0.01018	-0.09558	0.00339	0.00305	-0.03859	0.00907
2.30000	0.00021	0.00067	0.00064	0.00041	-3.78840	-89.64000	-0.01018	-0.09558	0.00339	0.00305	-0.03859	0.00907
2.30200	0.00021	0.00067	0.00064	0.00041	-3.69820	-89.64000	-0.01018	-0.09558	0.00339	0.00305	-0.03859	0.00907
2.30400	0.00098	0.00023	0.00083	0.00031	0.00000	0.00000	-0.00339	-0.05535	0.01619	0.00697	-0.04300	0.01182
2.30600	0.00121	0.00102	0.00020	-0.00032	-3.78840	-89.73000	-0.00339	-0.05535	0.01619	0.00697	-0.04300	0.01182
2.30800	0.00121	0.00102	0.00020	-0.00032	-3.78840	-89.82000	-0.00339	-0.05535	0.01619	0.00697	-0.04300	0.01182
2.31000	0.00121	0.00102	0.00020	-0.00032	-3.78840	-89.82000	-0.00339	-0.05535	0.01619	0.00697	-0.04300	0.01182
2.31200	0.00121	0.00102	0.00020	-0.00032	0.00000	0.00000	-0.00339	-0.05535	0.01619	0.00697	-0.04300	0.01182
2.31400	0.00012	-0.00007	0.00072	0.00041	-3.78840	-89.64000	-0.02880	-0.06955	0.05613	0.00336	-0.03726	0.01000
2.31600	0.00035	-0.00044	0.00073	0.00178	-3.87860	-89.55000	-0.02880	-0.06955	0.05613	0.00336	-0.03726	0.01000
2.31800	0.00035	-0.00044	0.00073	0.00178	0.00000	0.00000	-0.02880	-0.06955	0.05613	0.00336	-0.03726	0.01000
2.32000	0.00035	-0.00044	0.00073	0.00178	-3.87860	-89.73000	-0.02880	-0.06955	0.05613	0.00336	-0.03726	0.01000
2.32200	0.00035	-0.00044	0.00073	0.00178	-3.87860	-89.73000	-0.02880	-0.06955	0.05613	0.00336	-0.03726	0.01000
2.32400	-0.00004	0.00104	0.00077	0.00029	-3.87860	-89.73000	-0.02849	-0.05350	0.04673	0.00561	-0.03038	0.00790
2.32600	-0.00004	0.00104	0.00077	0.00029	0.00000	0.00000	-0.02849	-0.05350	0.04673	0.00561	-0.03038	0.00790
2.32800	-0.00004	0.00104	0.00077	0.00029	-3.87860	-89.64000	-0.02849	-0.05350	0.04673	0.00561	-0.03038	0.00790
2.33000	-0.00004	0.00104	0.00077	0.00029	-3.96880	-89.64000	-0.02849	-0.05350	0.04673	0.00561	-0.03038	0.00790
2.33200	-0.00074	0.00015	0.00070	0.00057	-3.96880	-89.73000	-0.07982	-0.07109	0.07557	0.00703	-0.02770	0.00623
2.33400	-0.00074	0.00015	0.00070	0.00057	0.00000	0.00000	-0.07982	-0.07109	0.07557	0.00703	-0.02770	0.00623
2.33600	-0.00074	0.00015	0.00070	0.00057	-3.87860	-89.73000	-0.07982	-0.07109	0.07557	0.00703	-0.02770	0.00623
2.33800	-0.00074	0.00015	0.00070	0.00057	-3.96880	-89.73000	-0.07982	-0.07109	0.07557	0.00703	-0.02770	0.00623
2.34000	0.00112	0.00157	0.00070	0.00057	0.00000	0.00000	-0.07190	-0.04064	0.10425	0.00962	-0.01601	0.00466
2.34200	0.00112	0.00157	0.00070	0.00057	-3.96880	-89.82000	-0.07190	-0.04064	0.10425	0.00962	-0.01601	0.00466
2.34400	0.00112	0.00157	0.00070	0.00057	-3.96880	-89.82000	-0.07190	-0.04064	0.10425	0.00962	-0.01601	0.00466
2.34600	0.00112	0.00157	0.00070	0.00057	-3.87860	-89.82000	-0.07190	-0.04064	0.10425	0.00962	-0.01601	0.00466
2.34800	0.00010	-0.00001	0.00055	0.00000	0.00000	0.00000	-0.09545	-0.02541	0.10070	0.00873	-0.01126	0.00383
2.35000	0.00010	-0.00001	0.00055	0.00000	-3.96880	-90.00000	-0.09545	-0.02541	0.10070	0.00873	-0.01126	0.00383
2.35200	0.00010	-0.00001	0.00055	0.00000	-3.96880	-89.91000	-0.09545	-0.02541	0.10070	0.00873	-0.01126	0.00383
2.35400	0.00010	-0.00001	0.00055	0.00000	-3.87860	-89.91000	-0.09545	-0.02541	0.10070	0.00873	-0.01126	0.00383
2.35600	-0.00011	0.00090	0.00093	0.00009	0.00000	0.00000	-0.12312	-0.01944	0.14080	0.01567	-0.01588	0.00710
2.35800	-0.00011	0.00090	0.00093	0.00009	-3.69820	-89.82000	-0.12312	-0.01944	0.14080	0.01567	-0.01588	0.00710
2.36000	-0.00011	0.00090	0.00093	0.00009	-3.78840	-89.82000	-0.12312	-0.01944	0.14080	0.01567	-0.01588	0.00710
2.36200	-0.00011	0.00090	0.00093	0.00009	-3.78840	-89.82000	-0.12312	-0.01944	0.14080	0.01567	-0.01588	0.00710
2.36400	0.00017	0.00001	0.00071	0.00059	-3.69820	-89.82000	-0.06717	-0.00226	0.13016	0.01487	-0.01573	0.00602
2.36600	0.00017	0.00001	0.00071	0.00059	-3.69820	-89.82000	-0.06717	-0.00226	0.13016	0.01487	-0.01573	0.00602
2.36800	0.00017	0.00001	0.00071	0.00059	-3.78840	-89.82000	-0.06717	-0.00226	0.13016	0.01487	-0.01573	0.00602
2.37000	0.00017	0.00001	0.00071	0.00059	0.00000	0.00000	-0.06717	-0.00226	0.13016	0.01487	-0.01573	0.00602
2.37200	0.00104	0.00072	0.00062	0.00036	-3.78840	-89.73000	-0.06717	-0.00226	0.13016	0.01262	-0.01983	0.00778
2.37400	0.00050	-0.00039	0.00071	0.00066	-3.96880	-89.73000	-0.11386	-0.03158	0.11859	0.01262	-0.01983	0.00778
2.37600	0.00050	-0.00039	0.00071	0.00066	-3.87860	-89.73000	-0.11386	-0.03158	0.11859	0.01262	-0.01983	0.00778
2.37800	0.00050	-0.00039	0.00071	0.00066	0.00000	0.00000	-0.11386	-0.03158	0.11859	0.01262	-0.01983	0.00778
2.38000	0.00050	-0.00039	0.00071	0.00066	-3.87860	-89.73000	-0.11386	-0.03158	0.11859	0.01262	-0.01983	0.00778
2.38200	0.00032	-0.00024	0.00081	0.00045	-3.87860	-89.82000	-0.06892	0.01286	0.13602	0.01681	-0.01289	0.00994
2.38400	0.00004	0.00113	0.00085	-0.00007	-3.87860	-89.82000	-0.06892	0.01286	0.13602	0.01681	-0.01289	0.00994
2.38600	0.00004	0.00113	0.00085	-0.00007	0.00000	0.00000	-0.06892	0.01286	0.13602	0.01681	-0.01289	0.00994
2.38800	0.00004	0.00113	0.00085	-0.00007	-3.87860	-89.91000	-0.06892	0.01286	0.13602	0.01681	-0.01289	0.00994
2.39000	0.00004	0.00113	0.00085	-0.00007	-3.96880	-89.82000	-0.06892	0.01286	0.13602	0.01681	-0.01289	0.00994
2.39200	-0.00018	-0.00029	0.00074	0.00014	-3.96880	-89.73000	-0.04495	-0.02037	0.12599	0.01823	-0.02421	0.01253
2.39400	-0.00018	-0.00029	0.00074	0.00014	-3.96880	-89.82000	-0.04495	-0.02037	0.12599	0.01823	-0.02421	0.01253
2.39600	-0.00018	-0.00029	0.00074	0.00014	-3.96880	-89.73000	-0.04495	-0.02037	0.12599	0.01823	-0.02421	0.01253
2.39800	-0.00018	-0.00029	0.00074	0.00014	0.00000	0.00000	-0.04495	-0.02037	0.12599	0.01823	-0.02421	0.01253
2.40000	0.00130	0.00067	0.00052	0.00025	0.00000	0.00000	-0.02335	0.00062	0.08420	0.02024	-0.03723	0.01271
2.40200	0.00130	0.00067	0.00052	0.00025	-3.87860	-89.82000	-0.02335	0.00062	0.08420	0.02024	-0.03723	0.01271
2.40400	0.00130	0.00067	0.00052	0.00025	-3.87860	-89.82000	-0.02335	0.00062	0.08420	0.02024	-0.03723	0.01271
2.40600	0.00130	0.00067	0.00052	0.00025	-3.87860	0.00000	-0.02335	0.00062	0.08420	0.02024	-0.03723	0.01271
2.40800	0.00023	-0.00033	0.00066	0.00058	0.00000	0.00000	-0.02335	0.00062	0.08420	0.02024	-0.03723	0.01271
2.41000	-0.00002	-0.00012	0.00072	0.00044	-3.87860	-89.73000	0.08404	-0.00730	0.08605	0.02021	-0.06092	0.01055
2.41200	-0.00002	-0.00012	0.00072	0.00044	-3.87860	-89.73000	0.08404	-0.00730	0.08605	0.02021	-0.06092	0.01055
2.41400	-0.00002	-0.00012	0.00072	0.00044	-3.78840	-89.64000	0.08404	-0.00730	0.08605	0.02021	-0.06092	0.01055
2.41600	-0.00002	-0.00012	0.00072	0.00044	-3.78840	-89.64000	0.08404	-0.00730	0.08605	0.02021	-0.06092	0.01055
2.41800	-0.00068	0.00145	0.00037	0.00084	-3.87860	-89.64000	0.03878	-0.05669	0.05860	0.02215	-0.05413	0.00876
2.42000	-0.00068	0.00145	0.00037	0.00084	-3.78840	0.00000	0.03878	-0.05669	0.05860	0.02215	-0.05413	0.00876
2.42200	-0.00068	0.00145	0.00037	0.00084	0.00000	0.00000	0.03878	-0.05669	0.05860	0.02215	-0.05413	0.00876
2.42400	-0.00068	0.00145	0.00037	0.00084	-3.69820	-89.64000	0.03878	-0.05669	0.05860	0.02215	-0.05413	0.00876
2.42600	-0.00034	0.00044	0.00072	0.00043	-3.78840	-89.55000	0.09278	-0.02088	0.07680	0.02372	-0.04944	0.00688
2.42800	-0.00034	0.00044	0.00072	0.00043	-3.78840	-89.73000	0.09278	-0.02088	0.07680	0.02372	-0.04944	0.00688
2.43000	-0.00034	0.00044	0.00072	0.00043	-3.69820	-89.82000	0.09278	-0.02088	0.07680	0.02372	-0.04944	0.00688
2.43200	-0.00034	0.00044	0.00072	0.00043	-3.69820	-89.82000	0.09278	-0.02088	0.07680	0.02372	-0.04944	0.00688
2.43400	0.00108	0.00127	0.00079	0.00030	-3.60800	-89.73000	0.02551	-0.07366	0.10733	0.01598	-0.05425	0.00278
2.43600	0.00108	0.00127	0.00079	0.00030	-3.69820	0.00000	0.02551	-0.07366	0.10733	0.01598	-0.05425	0.00278
2.43800	0.00108	0.00127	0.00079	0.00030	0.00000	0.00000	0.02551	-0.07366	0.10733	0.01598	-0.05425	0.00278
2.44000	0.00108	0.00127	0.00079	0.00030	-3.60800	-89.91000	0.02551	-0.07366	0.10733	0.01598	-0.05425	0.00278
2.44200	0.00004	-0.00057	0.00071	0.00052	-3.60800	-89.91000	0.08002	-0.00556	0.09392	0.02335	-0.05176	0.00228
2.44400	0.00004	-0.00057	0.00071	0.00052	0.00000	0.00000	0.08002	-0.00556	0.09392	0.02335	-0.05176	0.00228
2.44600	0.00004	-0.00057	0.00071	0.00052	-3.78840	-89.82000	0.08002	-0.00556	0.09392	0.02335	-0.05176	0.00228
2.44800	0.00004	-0.00057	0.00071	0.00052	-3.87860	-89.82000	0.08002	-0.00556	0.09392	0.02335	-0.05176	0.00228
2.45000	-0.00029	0.00087	0.00099	0.00022	-3.87860	-89.82000	0.01810	-0.01759	0.07171	0.02406	-0.05083	-0.00034
2.45200	-0.00029	0.00087	0.00099	0.00022	0.00000	0.00000	0.01810	-0.01759	0.07171	0.02406	-0.05083	-0.00034
2.45400	-0.00029	0.00087	0.00099	0.00022	-3.69820	-89.73000	0.01810	-0.01759	0.07171	0.02406	-0.05083	-0.00034
2.45600	-0.00029	0.00087	0.00099	0.00022	-3.69820	-89.73000	0.01810	-0.01759	0.07171	0.02406	-0.05083	-0.00034
2.45800	0.00010	-0.00027	0.00084	0.00069	-3.69820	-89.73000	-0.04680	0.02109	0.04071	0.02397	-0.04364	0.00312
2.46000	0.00010	-0.00027	0.00084	0.00069	-3.60800	-89.73000	-0.04680	0.02109	0.04071	0.02397	-0.04364	0.00312
2.46200	0.00010	-0.00027	0.00084	0.00069	-3.69820	-89.73000	-0.04680	0.02109	0.04071	0.02397	-0.04364	0.00312
2.46400	0.00010	-0.00027	0.00084	0.00069	-3.78840	-89.64000	-0.04680	0.02109	0.04071	0.02397	-0.04364	0.00312
2.46600	0.00050	0.00149	0.00070	0.00013	0.00000	0.00000	0.00761	0.12819	0.01912	0.03634	-0.02295	0.00756
2.46800	0.00050	0.00149	0.00070	0.00013	-3.96880	-89.55000	0.00761	0.12819	0.01912	0.03634	-0.02295	0.00756
2.47000	0.00050	0.00149	0.00070	0.00013	-3.87860	-89.55000	0.00761	0.12819	0.01912	0.03634	-0.02295	0.00756
2.47200	0.00050	0.00149	0.00070	0.00013	-3.78840	-89.55000	0.00761	0.12819	0.01912	0.03634	-0.02295	0.00756
2.47400	-0.00013	0.00030	0.00079	0.00062	0.00000	0.00000	-0.04433	0.02644	0.08312	0.03847	-0.03242	0.00663
2.47600	-0.00013	0.00030	0.00079	0.00062	-3.87860	-89.64000	-0.04433	0.02644	0.08312	0.03847	-0.03242	0.00663
2.47800	-0.00013	0.00030	0.00079	0.00062	-3.87860	-89.82000	-0.04433	0.02644	0.08312	0.03847	-0.03242	0.00663
2.48000	-0.00013	0.00030	0.00079	0.00062	-3.78840	-89.82000	-0.04433	0.02644	0.08312	0.03847	-0.03242	0.00663
2.48200	-0.00055	0.00122	0.00070	0.00059	-3.69820	-89.82000	-0.00576	0.01626	0.08328	0.02900	-0.03328	0.01207
2.48400	-0.00055	0.00122	0.00070	0.00059	-3.78840	-89.73000	-0.00576	0.01626	0.08328	0.02900	-0.03328	0.01207
2.48600	-0.00055	0.00122	0.00070	0.00059	-3.78840	-89.73000	-0.00576	0.01626	0.08328	0.02900	-0.03328	0.01207
2.48800	-0.00055	0.00122	0.00070	0.00059	0.00000	0.00000	-0.00576	0.01626	0.08328	0.02900	-0.03328	0.01207
2.49000	-0.00006	-0.00022	0.00078	0.00069	-3.96880	-89.73000	-0.08445	-0.01800	0.05876	0.02209	-0.03115	0.01166
2.49200	-0.00006	-0.00022	0.00078	0.00069	-3.96880	-89.64000	-0.08445	-0.01800	0.05876	0.02209	-0.03115	0.01166
2.49400	-0.00006	-0.00022	0.00078	0.00069	-3.96880	-89.64000	-0.08445	-0.01800	0.05876	0.02209	-0.03115	0.01166
2.49600	-0.00006	-0.00022	0.00078	0.00069	0.00000	0.00000	-0.08445	-0.01800	0.05876	0.02209	-0.03115	0.01166
2.49800	0.00069	0.00146	0.00084	0.00019	-3.87860	-89.82000	-0.01985	-0.04877	0.06230	0.02721	-0.02341	0.00941
2.50000	0.00069	0.00146	0.00084	0.00019	-3.87860	-89.73000	-0.01985	-0.04877	0.06230	0.02721	-0.02341	0.00941
2.50200	0.00069	0.00146	0.00084	0.00019	-3.87860	-89.64000	-0.01985	-0.04877	0.06230	0.02721	-0.02341	0.00941
2.50400	0.00069	0.00146	0.00084	0.00019	0.00000	0.00000	-0.01985	-0.04877	0.06230	0.02721	-0.02341	0.00941
2.50600	0.00013	0.00004	0.00091	0.00023	-3.96880	-89.73000	-0.01059	0.00422	0.11366	0.03406	-0.02363	0.01129
2.50800	0.00013	0.00004	0.00091	0.00023	-3.96880	-89.73000	-0.01059	0.00422	0.11366	0.03406	-0.02363	0.01129
2.51000	0.00013	0.00004	0.00091	0.00023	0.00000	0.00000	-0.01059	0.00422	0.11366	0.03406	-0.02363	0.01129
2.51200	0.00013	0.00004	0.00091	0.00023	-3.96880	-89.91000	-0.01059	0.00422	0.11366	0.03406	-0.02363	0.01129
2.51400	-0.00021	0.00107	0.00081	0.00069	-3.87860	-89.73000	-0.08640	0.01461	0.13617	0.02887	-0.02665	0.00926
2.51600	-0.00021	0.00107	0.00081	0.00069	-3.87860	-89.73000	-0.08640	0.01461	0.13617	0.02887	-0.02665	0.00926
2.51800	-0.00021	0.00107	0.00081	0.00069	0.00000	0.00000	-0.08640	0.01461	0.13617	0.02887	-0.02665	0.00926
2.52000	-0.00021	0.00107	0.00081	0.00069	-3.78840	-89.82000	-0.08640	0.01461	0.13617	0.02887	-0.02665	0.00926
2.52200	0.00048	0.00017	0.00067	0.00071	-3.69820	-90.00000	-0.01255	0.05298	0.14589	0.03730	-0.03359	0.00589
2.52400	0.00048	0.00017	0.00067	0.00071	-3.78840	-89.91000	-0.01255	0.05298	0.14589	0.03730	-0.03359	0.00589
2.52600	0.00048	0.00017	0.00067	0.00071	0.00000	0.00000	-0.01255	0.05298	0.14589	0.03730	-0.03359	0.00589
2.52800	0.00048	0.00017	0.00067	0.00071	-3.69820	-89.91000	-0.01255	0.05298	0.14589	0.03730	-0.03359	0.00589
2.53000	-0.00009	0.00080	0.00091	0.00057	-3.78840	-89.82000	-0.01080	0.00391	0.09500	0.02949	-0.03825	0.00392
2.53200	-0.00009	0.00080	0.00091	0.00057	-3.78840	-89.73000	-0.01080	0.00391	0.09500	0.02949	-0.03825	0.00392
2.53400	-0.00009	0.00080	0.00091	0.00057	-3.87860	-89.82000	-0.01080	0.00391	0.09500	0.02949	-0.03825	0.00392
2.53600	-0.00009	0.00080	0.00091	0.00057	-3.78840	-89.64000	-0.01080	0.00391	0.09500	0.02949	-0.03825	0.00392
2.53800	-0.00055	0.00020	0.00066	0.00034	-3.87860	-89.64000	-0.06501	0.03261	0.08975	0.02718	-0.02625	0.00102
2.54000	-0.00055	0.00020	0.00066	0.00034	0.00000	0.00000	-0.06501	0.03261	0.08975	0.02718	-0.02625	0.00102
2.54200	-0.00055	0.00020	0.00066	0.00034	-3.87860	-89.64000	-0.06501	0.03261	0.08975	0.02718	-0.02625	0.00102
2.54400	-0.00055	0.00020	0.00066	0.00034	-3.78840	-89.73000	-0.06501	0.03261	0.08975	0.02718	-0.02625	0.00102
2.54600	-0.00022	0.00068	0.00087	0.00027	-3.78840	-89.73000	0.00082	0.05185	0.06816	0.02878	-0.03454	0.00167
2.54800	-0.00022	0.00068	0.00087	0.00027	0.00000	0.00000	0.00082	0.05185	0.06816	0.02878	-0.03454	0.00167
2.55000	-0.00022	0.00068	0.00087	0.00027	-3.87860	-89.64000	0.00082	0.05185	0.06816	0.02878	-0.03454	0.00167
2.55200	-0.00022	0.00068	0.00087	0.00027	-3.87860	-89.64000	0.00082	0.05185	0.06816	0.02878	-0.03454	0.00167
2.55400	0.00065	0.00010	0.00074	0.00071	-3.87860	-89.64000	-0.00525	0.01862	0.13201	0.03307	-0.04056	0.00139
2.55600	0.00065	0.00010	0.00074	0.00071	-3.78840	-89.73000	-0.00525	0.01862	0.13201	0.03307	-0.04056	0.00139
2.55800	0.00065	0.00010	0.00074	0.00071	-3.78840	-89.73000	-0.00525	0.01862	0.13201	0.03307	-0.04056	0.00139
2.56000	0.00065	0.00010	0.00074	0.00071	-3.69820	-89.91000	-0.00525	0.01862	0.13201	0.03307	-0.04056	0.00139
2.56200	0.00016	0.00060	0.00085	0.00070	0.00000	0.00000	-0.01245	0.05556	0.12168	0.03039	-0.04204	0.00636
2.56400	0.00016	0.00060	0.00085	0.00070	-3.69820	-89.91000	-0.01245	0.05556	0.12168	0.03039	-0.04204	0.00636
2.56600	0.00016	0.00060	0.00085	0.00070	-3.69820	-89.91000	-0.01245	0.05556	0.12168	0.03039	-0.04204	0.00636
2.56800	0.00016	0.00060	0.00085	0.00070	0.00000	0.00000	-0.01245	0.05556	0.12168	0.03039	-0.04204	0.00636
2.57000	-0.00022	0.00027	0.00058	0.00078	-3.69820	-89.82000	0.02407	-0.01204	0.09500	0.02178	-0.04198	0.00923
2.57200	-0.00022	0.00027	0.00058	0.00078	-3.69820	-89.82000	0.02407	-0.01204	0.09500	0.02178	-0.04198	0.00923
2.57400	-0.00022	0.00027	0.00058	0.00078	0.00000	0.00000	0.02407	-0.01204	0.09500	0.02178	-0.04198	0.00923
2.57600	-0.00022	0.00027	0.00058	0.00078	0.00000	0.00000	0.02407	-0.01204	0.09500	0.02178	-0.04198	0.00923
2.57800	-0.00029	0.00062	0.00049	0.00034	-3.78840	-89.82000	-0.01049	-0.05586	0.07695	0.02227	-0.03633	0.00876
2.58000	-0.00029	0.00062	0.00049	0.00034	-3.69820	-89.82000	-0.01049	-0.05586	0.07695	0.02227	-0.03633	0.00876
2.58200	-0.00029	0.00062	0.00049	0.00034	-3.60800	-89.82000	-0.01049	-0.05586	0.07695	0.02227	-0.03633	0.00876
2.58400	-0.00029	0.00062	0.00049	0.00034	-3.60800	-89.82000	-0.01049	-0.05586	0.07695	0.02227	-0.03633	0.00876
2.58600	0.00055	0.00027	0.00063	0.00014	-4.05900	-89.82000	-0.01635	0.02757	0.06045	0.02530	-0.03350	0.01262
2.58800	0.00055	0.00027	0.00063	0.00014	-4.05900	-89.82000	-0.01635	0.02757	0.06045	0.02530	-0.03350	0.01262
2.59000	0.00055	0.00027	0.00063	0.00014	-3.96880	-89.82000	-0.01635	0.02757	0.06045	0.02530	-0.03350	0.01262
2.59200	0.00055	0.00027	0.00063	0.00014	-3.96880	-89.82000	-0.01635	0.02757	0.06045	0.02530	-0.03350	0.01262
2.59400	0.00012	0.00010	0.00059	0.00018	-3.87860	-89.91000	-0.04330	0.02294	0.05243	0.02647	-0.03414	0.01410
2.59600	0.00012	0.00010	0.00059	0.00018	-3.96880	-89.91000	-0.04330	0.02294	0.05243	0.02647	-0.03414	0.01410
2.59800	0.00012	0.00010	0.00059	0.00018	-3.87860	-89.73000	-0.04330	0.02294	0.05243	0.02647	-0.03414	0.01410
2.60000	0.00012	0.00010	0.00059	0.00018	-3.87860	-89.73000	-0.04330	0.02294	0.05243	0.02647	-0.03414	0.01410
2.60200	-0.00027	0.00023	0.00066	0.00053	-3.78840	-89.64000	-0.03446	0.01512	0.05613	0.02604	-0.02757	0.01265
2.60400	-0.00027	0.00023	0.00066	0.00053	-3.78840	-89.73000	-0.03446	0.01512	0.05613	0.02604	-0.02757	0.01265
2.60600	-0.00027	0.00023	0.00066	0.00053	-3.87860	-89.82000	-0.03446	0.01512	0.05613	0.02604	-0.02757	0.01265
2.60800	-0.00027	0.00023	0.00066	0.00053	-3.87860	-89.82000	-0.03446	0.01512	0.05613	0.02604	-0.02757	0.01265
2.61000	-0.00062	0.00078	0.00069	0.00087	-3.78840	-89.82000	-0.04762	-0.01430	-0.01110	0.01792	-0.02896	0.01095
2.61200	-0.00062	0.00078	0.00069	0.00087	0.00000	0.00000	-0.04762	-0.01430	-0.01110	0.01792	-0.02896	0.01095
2.61400	-0.00062	0.00078	0.00069	0.00087	-3.69820	-89.64000	-0.04762	-0.01430	-0.01110	0.01792	-0.02896	0.01095
2.61600	-0.00062	0.00078	0.00069	0.00087	-3.78840	-89.64000	-0.04762	-0.01430	-0.01110	0.01792	-0.02896	0.01095
2.61800	0.00106	0.00107	0.00020	0.00023	-3.69820	-89.64000	-0.08229	-0.04084	-0.02730	0.01623	-0.02341	0.00762
2.62000	0.00106	0.00107	0.00020	0.00023	0.00000	0.00000	-0.08229	-0.04084	-0.02730	0.01623	-0.02341	0.00762
2.62200	0.00106	0.00107	0.00020	0.00023	-3.87860	-89.73000	-0.08229	-0.04084	-0.02730	0.01623	-0.02341	0.00762
2.62400	0.00106	0.00107	0.00020	0.00023	-3.87860	-89.73000	-0.08229	-0.04084	-0.02730	0.01623	-0.02341	0.00762
2.62600	0.00002	0.00030	0.00079	0.00053	-3.87860	-89.55000	-0.04886	-0.06893	0.00941	0.01299	-0.02276	0.00608
2.62800	0.00002	0.00030	0.00079	0.00053	-4.05900	-89.55000	-0.04886	-0.06893	0.00941	0.01299	-0.02276	0.00608
2.63000	0.00002	0.00030	0.00079	0.00053	-4.05900	-89.55000	-0.04886	-0.06893	0.00941	0.01299	-0.02276	0.00608
2.63200	0.00002	0.00030	0.00079	0.00053	-3.96880	-89.64000	-0.04886	-0.06893	0.00941	0.01299	-0.02276	0.00608
2.63400	-0.00026	0.00059	0.00084	0.00047	0.00000	0.00000	-0.05215	-0.06914	0.03732	0.00851	-0.03365	0.00373
2.63600	-0.00026	0.00059	0.00084	0.00047	-3.78840	-89.73000	-0.05215	-0.06914	0.03732	0.00851	-0.03365	0.00373
2.63800	-0.00026	0.00059	0.00084	0.00047	-3.69820	-89.82000	-0.05215	-0.06914	0.03732	0.00851	-0.03365	0.00373
2.64000	-0.00026	0.00059	0.00084	0.00047	-3.69820	-89.82000	-0.05215	-0.06914	0.03732	0.00851	-0.03365	0.00373
2.64200	-0.00024	0.00022	0.00071	0.00030	0.00000	-89.73000	-0.00730	-0.02315	0.05799	0.01246	-0.04599	0.00352
2.64400	-0.00024	0.00022	0.00071	0.00030	-3.69820	-89.73000	-0.00730	-0.02315	0.05799	0.01246	-0.04599	0.00352
2.64600	-0.00024	0.00022	0.00071	0.00030	-3.69820	-89.82000	-0.00730	-0.02315	0.05799	0.01246	-0.04599	0.00352
2.64800	-0.00024	0.00022	0.00071	0.00030	-3.69820	-89.82000	-0.00730	-0.02315	0.05799	0.01246	-0.04599	0.00352
2.65000	0.00129	0.00072	0.00056	0.00013	0.00000	0.00000	0.02983	-0.01780	0.04935	0.01367	-0.05737	0.00370
2.65200	0.00129	0.00072	0.00056	0.00013	-3.87860	-89.91000	0.02983	-0.01780	0.04935	0.01367	-0.05737	0.00370
2.65400	0.00129	0.00072	0.00056	0.00013	-3.96880	-89.82000	0.02983	-0.01780	0.04935	0.01367	-0.05737	0.00370
2.65600	0.00129	0.00072	0.00056	0.00013	0.00000	0.00000	0.02983	-0.01780	0.04935	0.01367	-0.05737	0.00370
2.65800	0.00040	-0.00020	0.00061	0.00064	-3.87860	-89.91000	0.00782	-0.01615	0.04657	0.01277	-0.05638	0.00367
2.66000	0.00040	-0.00020	0.00061	0.00064	-3.87860	-89.91000	0.00782	-0.01615	0.04657	0.01277	-0.05638	0.00367
2.66200	0.00040	-0.00020	0.00061	0.00064	-3.69820	-89.73000	0.00782	-0.01615	0.04657	0.01277	-0.05638	0.00367
2.66400	0.00040	-0.00020	0.00061	0.00064	0.00000	0.00000	0.00782	-0.01615	0.04657	0.01277	-0.05638	0.00367
2.66600	-0.00030	0.00099	0.00071	0.00052	-3.60800	-89.73000	0.02160	-0.01646	0.07510	0.00882	-0.05095	0.00435
2.66800	-0.00030	0.00099	0.00071	0.00052	-3.60800	-89.64000	0.02160	-0.01646	0.07510	0.00882	-0.05095	0.00435
2.67000	-0.00030	0.00099	0.00071	0.00052	-3.69820	-89.73000	0.02160	-0.01646	0.07510	0.00882	-0.05095	0.00435
2.67200	-0.00030	0.00099	0.00071	0.00052	0.00000	0.00000	0.02160	-0.01646	0.07510	0.00882	-0.05095	0.00435
2.67400	-0.00004	-0.00001	0.00068	0.00078	-3.87860	-89.64000	-0.00833	-0.06070	0.10872	0.00494	-0.04802	0.00799
2.67600	-0.00004	-0.00001	0.00068	0.00078	-3.87860	-89.64000	-0.00833	-0.06070	0.10872	0.00494	-0.04802	0.00799
2.67800	-0.00004	-0.00001	0.00068	0.00078	0.00000	0.00000	-0.00833	-0.06070	0.10872	0.00494	-0.04802	0.00799
2.68000	-0.00004	-0.00001	0.00068	0.00078	-3.78840	-89.64000	-0.00833	-0.06070	0.10872	0.00494	-0.04802	0.00799
2.68200	0.00076	0.00096	0.00048	0.00013	-3.69820	-89.73000	-0.00843	-0.06842	0.11844	0.00549	-0.04559	0.01256
2.68400	0.00076	0.00096	0.00048	0.00013	-3.60800	-89.82000	-0.00843	-0.06842	0.11844	0.00549	-0.04559	0.01256
2.68600	0.00076	0.00096	0.00048	0.00013	0.00000	0.00000	-0.00843	-0.06842	0.11844	0.00549	-0.04559	0.01256
2.68800	0.00076	0.00096	0.00048	0.00013	-3.69820	-89.73000	-0.00843	-0.06842	0.11844	0.00549	-0.04559	0.01256
2.69000	0.00039	-0.00023	0.00081	0.00053	-3.78840	-89.82000	-0.01666	-0.08807	0.11289	0.00204	-0.04417	0.01265
2.69200	0.00039	-0.00023	0.00081	0.00053	-3.87860	-89.91000	-0.01666	-0.08807	0.11289	0.00204	-0.04417	0.01265
2.69400	0.00039	-0.00023	0.00081	0.00053	0.00000	0.00000	-0.01666	-0.08807	0.11289	0.00204	-0.04417	0.01265
2.69600	0.00039	-0.00023	0.00081	0.00053	-3.87860	-89.73000	-0.01666	-0.08807	0.11289	0.00204	-0.04417	0.01265
2.69800	-0.00010	0.00149	0.00070	0.00028	-3.87860	-89.82000	-0.04526	-0.08056	0.11859	0.00253	-0.03735	0.01444
2.70000	-0.00010	0.00149	0.00070	0.00028	0.00000	0.00000	-0.04526	-0.08056	0.11859	0.00253	-0.03735	0.01444
2.70200	-0.00010	0.00149	0.00070	0.00028	-3.78840	-89.82000	-0.04526	-0.08056	0.11859	0.00253	-0.03735	0.01444
2.70400	-0.00010	0.00149	0.00070	0.00028	-3.78840	-89.73000	-0.04526	-0.08056	0.11859	0.00253	-0.03735	0.01444
2.70600	-0.00044	-0.00020	0.00057	0.00026	-3.78840	-89.64000	-0.05328	-0.04866	0.11890	0.00262	-0.02767	0.01231
2.70800	-0.00044	-0.00020	0.00057	0.00026	0.00000	0.00000	-0.05328	-0.04866	0.11890	0.00262	-0.02767	0.01231
2.71000	-0.00044	-0.00020	0.00057	0.00026	-3.87860	-89.73000	-0.05328	-0.04866	0.11890	0.00262	-0.02767	0.01231
2.71200	-0.00044	-0.00020	0.00057	0.00026	-3.87860	-89.73000	-0.05328	-0.04866	0.11890	0.00262	-0.02767	0.01231
2.71400	0.00156	0.00051	0.00054	0.00003	-3.78840	-89.73000	-0.08928	-0.05514	0.13941	0.00259	-0.02764	0.01222
2.71600	0.00156	0.00051	0.00054	0.00003	0.00000	0.00000	-0.08928	-0.05514	0.13941	0.00259	-0.02764	0.01222
2.71800	0.00156	0.00051	0.00054	0.00003	-3.78840	-89.55000	-0.08928	-0.05514	0.13941	0.00259	-0.02764	0.01222
2.72000	0.00156	0.00051	0.00054	0.00003	-3.60800	-89.64000	-0.08928	-0.05514	0.13941	0.00259	-0.02764	0.01222
2.72200	0.00038	-0.00017	0.00073	0.00022	-3.60800	-89.73000	-0.08928	-0.05514	0.13941	0.00259	-0.02764	0.01222
2.72400	-0.00054	-0.00018	0.00053	0.00054	-3.60800	-89.73000	-0.09082	-0.04249	0.14358	0.00355	-0.02248	0.00987
2.72600	-0.00054	-0.00018	0.00053	0.00054	-3.78840	-89.73000	-0.09082	-0.04249	0.14358	0.00355	-0.02248	0.00987
2.72800	-0.00054	-0.00018	0.00053	0.00054	-3.78840	-89.82000	-0.09082	-0.04249	0.14358	0.00355	-0.02248	0.00987
2.73000	-0.00054	-0.00018	0.00053	0.00054	0.00000	0.00000	-0.09082	-0.04249	0.14358	0.00355	-0.02248	0.00987
2.73200	-0.00024	0.00180	0.00047	0.00094	-3.96880	-89.73000	-0.09658	-0.04259	0.09315	0.00238	-0.02649	0.00707
2.73400	-0.00024	0.00180	0.00047	0.00094	-3.78840	-89.73000	-0.09658	-0.04259	0.09315	0.00238	-0.02649	0.00707
2.73600	-0.00024	0.00180	0.00047	0.00094	-3.78840	-89.73000	-0.09658	-0.04259	0.09315	0.00238	-0.02649	0.00707
2.73800	-0.00024	0.00180	0.00047	0.00094	0.00000	0.00000	-0.09658	-0.04259	0.09315	0.00238	-0.02649	0.00707
2.74000	0.00006	-0.00029	0.00065	0.00056	-3.87860	-89.91000	-0.10018	-0.05504	0.06662	0.00194	-0.02757	0.00586
2.74200	0.00006	-0.00029	0.00065	0.00056	-3.87860	-89.91000	-0.10018	-0.05504	0.06662	0.00194	-0.02757	0.00586
2.74400	0.00006	-0.00029	0.00065	0.00056	0.00000	0.00000	-0.10018	-0.05504	0.06662	0.00194	-0.02757	0.00586
2.74600	0.00006	-0.00029	0.00065	0.00056	-3.78840	-89.73000	-0.10018	-0.05504	0.06662	0.00194	-0.02757	0.00586
2.74800	0.00065	0.00116	0.00071	0.00046	-3.87860	-89.64000	-0.08373	-0.04815	0.04333	0.00194	-0.02853	0.00546
2.75000	0.00065	0.00001	0.00042	0.00072	-3.87860	-89.73000	-0.08373	-0.04815	0.04333	0.00194	-0.02853	0.00546
2.75200	0.00065	0.00001	0.00042	0.00072	0.00000	0.00000	-0.08373	-0.04815	0.04333	0.00194	-0.02853	0.00546
2.75400	0.00065	0.00001	0.00042	0.00072	-3.87860	-89.73000	-0.08373	-0.04815	0.04333	0.00194	-0.02853	0.00546
2.75600	0.00065	0.00001	0.00042	0.00072	-3.87860	-89.64000	-0.08373	-0.04815	0.04333	0.00194	-0.02853	0.00546
2.75800	-0.00004	0.00035	0.00079	0.00033	-3.87860	-89.64000	-0.07951	-0.07058	0.05721	0.00194	-0.03257	0.00383
2.76000	-0.00004	0.00035	0.00079	0.00033	-3.87860	-89.73000	-0.07951	-0.07058	0.05721	0.00194	-0.03257	0.00383
2.76200	-0.00004	0.00035	0.00079	0.00033	-3.78840	-89.82000	-0.07951	-0.07058	0.05721	0.00194	-0.03257	0.00383
2.76400	-0.00004	0.00035	0.00079	0.00033	-3.78840	-89.73000	-0.07951	-0.07058	0.05721	0.00194	-0.03257	0.00383
2.76600	-0.00048	-0.00007	0.00073	0.00036	0.00000	0.00000	-0.01358	-0.08508	0.08975	-0.00216	-0.04040	0.00552
2.76800	-0.00048	-0.00007	0.00073	0.00036	-3.69820	-89.82000	-0.01358	-0.08508	0.08975	-0.00216	-0.04040	0.00552
2.77000	-0.00048	-0.00007	0.00073	0.00036	-3.69820	-89.82000	-0.01358	-0.08508	0.08975	-0.00216	-0.04040	0.00552
2.77200	-0.00048	-0.00007	0.00073	0.00036	-3.69820	-89.82000	-0.01358	-0.08508	0.08975	-0.00216	-0.04040	0.00552
2.77400	0.00106	0.00043	0.00061	0.00076	0.00000	0.00000	0.00535	-0.06924	0.07248	0.00028	-0.05836	0.00728
2.77600	0.00106	0.00043	0.00061	0.00076	-3.87860	-89.91000	0.00535	-0.06924	0.07248	0.00028	-0.05836	0.00728
2.77800	0.00106	0.00043	0.00061	0.00076	-3.87860	-89.82000	0.00535	-0.06924	0.07248	0.00028	-0.05836	0.00728
2.78000	0.00106	0.00043	0.00061	0.00076	-3.78840	-89.73000	0.00535	-0.06924	0.07248	0.00028	-0.05836	0.00728
2.78200	0.00029	0.00048	0.00068	-0.00008	-3.78840	-89.82000	0.04567	-0.06914	0.03269	0.00170	-0.06378	0.00895
2.78400	0.00029	0.00048	0.00068	-0.00008	-3.78840	-89.73000	0.04567	-0.06914	0.03269	0.00170	-0.06378	0.00895
2.78600	0.00029	0.00048	0.00068	-0.00008	-3.78840	-89.82000	0.04567	-0.06914	0.03269	0.00170	-0.06378	0.00895
2.78800	0.00029	0.00048	0.00068	-0.00008	0.00000	0.00000	0.04567	-0.06914	0.03269	0.00170	-0.06378	0.00895
2.79000	-0.00048	0.00063	0.00073	0.00058	-3.78840	-89.73000	0.07046	-0.08591	0.03655	0.00247	-0.06869	0.01071
2.79200	-0.00048	0.00063	0.00073	0.00058	-3.87860	-89.73000	0.07046	-0.08591	0.03655	0.00247	-0.06869	0.01071
2.79400	-0.00048	0.00063	0.00073	0.00058	-3.87860	-89.73000	0.07046	-0.08591	0.03655	0.00247	-0.06869	0.01071
2.79600	-0.00048	0.00063	0.00073	0.00058	-3.78840	-89.82000	0.07046	-0.08591	0.03655	0.00247	-0.06869	0.01071
2.79800	-0.00026	0.00022	0.00084	0.00059	-3.78840	-89.82000	0.04752	-0.07017	0.04673	0.00080	-0.06782	0.01077
2.80000	-0.00007	-0.00067	0.00044	0.00091	-3.78840	-89.82000	0.04752	-0.07017	0.04673	0.00080	-0.06782	0.01077
2.80200	-0.00007	-0.00067	0.00044	0.00091	-3.87860	-89.82000	0.04752	-0.07017	0.04673	0.00080	-0.06782	0.01077
2.80400	-0.00007	-0.00067	0.00044	0.00091	0.00000	0.00000	0.04752	-0.07017	0.04673	0.00080	-0.06782	0.01077
2.80600	-0.00007	-0.00067	0.00044	0.00091	-3.87860	-89.73000	0.04752	-0.07017	0.04673	0.00080	-0.06782	0.01077
2.80800	0.00100	0.00157	0.00058	0.00058	-3.87860	-89.64000	0.05729	-0.08261	0.05613	0.00179	-0.06502	0.01166
2.81000	0.00100	0.00157	0.00058	0.00058	0.00000	0.00000	0.05729	-0.08261	0.05613	0.00179	-0.06502	0.01166
2.81200	0.00100	0.00157	0.00058	0.00058	-3.96880	-89.64000	0.05729	-0.08261	0.05613	0.00179	-0.06502	0.01166
2.81400	0.00100	0.00157	0.00058	0.00058	-4.05900	-89.64000	0.05729	-0.08261	0.05613	0.00179	-0.06502	0.01166
2.81600	0.00006	0.00018	0.00090	0.00057	-4.05900	-89.64000	0.05729	-0.08261	0.05613	0.00179	-0.06502	0.01166
2.81800	0.00006	0.00018	0.00090	0.00057	0.00000	0.00000	-0.01306	-0.09167	0.06307	0.00037	-0.05768	0.00950
2.82000	-0.00018	0.00068	-0.00035	0.00020	-3.87860	-89.82000	-0.01306	-0.09167	0.06307	0.00037	-0.05768	0.00950
2.82200	-0.00018	0.00068	-0.00035	0.00020	-3.78840	-89.82000	-0.02386	-0.04774	0.02884	0.00059	-0.04445	0.01040
2.82400	-0.00018	0.00068	-0.00035	0.00020	-3.78840	-89.82000	-0.02386	-0.04774	0.02884	0.00059	-0.04445	0.01040
2.82600	0.00009	0.00098	0.00062	0.00023	-3.78840	-89.82000	-0.02386	-0.04774	0.02884	0.00059	-0.04445	0.01040
2.82800	-0.00059	-0.00060	0.00075	0.00007	-3.78840	-89.73000	-0.01728	-0.03385	0.02097	0.00281	-0.03417	0.00861
2.83000	-0.00059	-0.00060	0.00075	0.00007	-3.87860	-89.64000	-0.01728	-0.03385	0.02097	0.00281	-0.03417	0.00861
2.83200	-0.00059	-0.00060	0.00075	0.00007	0.00000	0.00000	-0.01728	-0.03385	0.02097	0.00281	-0.03417	0.00861
2.83400	-0.00059	-0.00060	0.00075	0.00007	-3.96880	-89.55000	-0.01728	-0.03385	0.02097	0.00281	-0.03417	0.00861
2.83600	0.00158	0.00068	0.00057	0.00006	-3.96880	-89.64000	-0.06161	-0.02068	0.05922	0.00395	-0.03581	0.00836
2.83800	0.00158	0.00068	0.00057	0.00006	-3.87860	-89.73000	-0.06161	-0.02068	0.05922	0.00395	-0.03581	0.00836
2.84000	0.00158	0.00068	0.00057	0.00006	0.00000	0.00000	-0.06161	-0.02068	0.05922	0.00395	-0.03581	0.00836
2.84200	0.00158	0.00068	0.00057	0.00006	-3.69820	-89.64000	-0.06161	-0.02068	0.05922	0.00395	-0.03581	0.00836
2.84400	-0.00017	0.00074	0.00059	0.00020	-3.69820	-89.64000	-0.08116	0.00041	0.09916	0.01107	-0.03297	0.00722
2.84600	-0.00017	0.00074	0.00059	0.00020	-3.96880	-89.82000	-0.08116	0.00041	0.09916	0.01107	-0.03297	0.00722
2.84800	-0.00017	0.00074	0.00059	0.00020	-3.96880	-89.82000	-0.08116	0.00041	0.09916	0.01107	-0.03297	0.00722
2.85000	-0.00017	0.00074	0.00059	0.00020	-4.05900	-89.82000	-0.08116	0.00041	0.09916	0.01107	-0.03297	0.00722
2.85200	-0.00013	0.00028	0.00105	0.00041	-4.05900	-89.82000	-0.07900	-0.03251	0.08297	0.00790	-0.02902	0.00710
2.85400	-0.00013	0.00028	0.00105	0.00041	0.00000	0.00000	-0.07900	-0.03251	0.08297	0.00790	-0.02902	0.00710
2.85600	-0.00013	0.00028	0.00105	0.00041	-3.87860	-89.73000	-0.07900	-0.03251	0.08297	0.00790	-0.02902	0.00710
2.85800	-0.00013	0.00028	0.00105	0.00041	-3.78840	-89.91000	-0.07900	-0.03251	0.08297	0.00790	-0.02902	0.00710
2.86000	0.00016	0.00017	0.00070	0.00058	-3.87860	-89.91000	-0.05873	-0.05082	0.05845	0.00780	-0.02393	0.00562
2.86200	0.00016	0.00017	0.00070	0.00058	-3.87860	-89.82000	-0.05873	-0.05082	0.05845	0.00780	-0.02393	0.00562
2.86400	0.00016	0.00017	0.00070	0.00058	-3.87860	-89.82000	-0.05873	-0.05082	0.05845	0.00780	-0.02393	0.00562
2.86600	0.00016	0.00017	0.00070	0.00058	-3.78840	-89.82000	-0.05873	-0.05082	0.05845	0.00780	-0.02393	0.00562
2.86800	0.00132	0.00072	0.00085	0.00059	0.00000	0.00000	-0.03559	-0.08076	0.06539	0.00802	-0.03180	0.00537
2.87000	0.00132	0.00072	0.00085	0.00059	-3.96880	-89.91000	-0.03559	-0.08076	0.06539	0.00802	-0.03180	0.00537
2.87200	0.00132	0.00072	0.00085	0.00059	-4.05900	-89.82000	-0.03559	-0.08076	0.06539	0.00802	-0.03180	0.00537
2.87400	0.00132	0.00072	0.00085	0.00059	-4.14920	-89.91000	-0.03559	-0.08076	0.06539	0.00802	-0.03180	0.00537
2.87600	0.00015	-0.00006	0.00092	0.00054	0.00000	0.00000	-0.07180	-0.09486	0.06570	0.00799	-0.04127	0.00321
2.87800	0.00015	-0.00006	0.00092	0.00054	-3.96880	-89.82000	-0.07180	-0.09486	0.06570	0.00799	-0.04127	0.00321
2.88000	0.00015	-0.00006	0.00092	0.00054	-3.87860	-89.82000	-0.07180	-0.09486	0.06570	0.00799	-0.04127	0.00321
2.88200	0.00015	-0.00006	0.00092	0.00054	-3.96880	-89.82000	-0.07180	-0.09486	0.06570	0.00799	-0.04127	0.00321
2.88400	-0.00004	0.00104	0.00069	0.00072	-4.05900	-89.73000	-0.07180	-0.09486	0.06570	0.00799	-0.04127	0.00321
2.88600	-0.00126	0.00074	0.00063	0.00113	-4.05900	-89.73000	-0.00319	-0.02222	0.05413	0.01518	-0.04019	0.00688
2.88800	-0.00126	0.00074	0.00063	0.00113	-3.96880	-89.64000	-0.00319	-0.02222	0.05413	0.01518	-0.04019	0.00688
2.89000	-0.00126	0.00074	0.00063	0.00113	0.00000	0.00000	-0.00319	-0.02222	0.05413	0.01518	-0.04019	0.00688
2.89200	-0.00126	0.00074	0.00063	0.00113	-3.96880	-89.64000	-0.00319	-0.02222	0.05413	0.01518	-0.04019	0.00688
2.89400	-0.00050	-0.00006	0.00072	0.00088	-3.96880	-89.73000	-0.00319	-0.02222	0.05413	0.01518	-0.04019	0.00688
2.89600	0.00221	0.00046	0.00105	0.00102	-3.96880	-89.73000	0.00381	-0.02675	0.05367	0.01863	-0.04873	0.00630
2.89800	0.00221	0.00046	0.00105	0.00102	-3.96880	-89.73000	0.00381	-0.02675	0.05367	0.01863	-0.04873	0.00630
2.90000	0.00221	0.00046	0.00105	0.00102	-3.96880	-89.73000	0.00381	-0.02675	0.05367	0.01863	-0.04873	0.00630
2.90200	0.00221	0.00046	0.00105	0.00102	-3.96880	-89.64000	0.00381	-0.02675	0.05367	0.01863	-0.04873	0.00630
2.90400	0.00079	0.00091	0.00066	0.00052	-3.87860	-89.64000	0.00381	-0.02675	0.05367	0.01863	-0.04873	0.00630
2.90600	0.00015	-0.00016	0.00074	0.00143	-3.78840	-89.64000	0.04001	0.01348	0.04596	0.02092	-0.05959	0.00738
2.90800	0.00015	-0.00016	0.00074	0.00143	-3.78840	-89.64000	0.04001	0.01348	0.04596	0.02092	-0.05959	0.00738
2.91000	0.00015	-0.00016	0.00074	0.00143	0.00000	0.00000	0.04001	0.01348	0.04596	0.02092	-0.05959	0.00738
2.91200	0.00015	-0.00016	0.00074	0.00143	0.00000	0.00000	0.04001	0.01348	0.04596	0.02092	-0.05959	0.00738
2.91400	-0.00020	0.00012	0.00078	0.00005	-3.78840	-89.64000	0.06449	-0.01965	0.07279	0.02166	-0.06431	0.00673
2.91600	-0.00020	0.00012	0.00078	0.00005	-3.87860	-89.73000	0.06449	-0.01965	0.07279	0.02166	-0.06431	0.00673
2.91800	-0.00020	0.00012	0.00078	0.00005	-3.96880	-89.73000	0.06449	-0.01965	0.07279	0.02166	-0.06431	0.00673
2.92000	-0.00020	0.00012	0.00078	0.00005	0.00000	0.00000	0.06449	-0.01965	0.07279	0.02166	-0.06431	0.00673
2.92200	-0.00000	0.00009	0.00090	0.00045	-3.96880	-89.73000	0.06449	-0.01965	0.07279	0.02166	-0.06431	0.00673
2.92400	-0.00015	-0.00024	0.00071	0.00089	-3.87860	-89.73000	0.04546	-0.01780	0.08821	0.02224	-0.06064	0.00713
2.92600	-0.00015	-0.00024	0.00071	0.00089	-3.78840	-89.73000	0.04546	-0.01780	0.08821	0.02224	-0.06064	0.00713
2.92800	-0.00015	-0.00024	0.00071	0.00089	-3.87860	-89.82000	0.04546	-0.01780	0.08821	0.02224	-0.06064	0.00713
2.93000	-0.00015	-0.00024	0.00071	0.00089	-3.96880	-89.82000	0.04546	-0.01780	0.08821	0.02224	-0.06064	0.00713
2.93200	0.00096	0.00068	0.00046	0.00077	-3.87860	-89.82000	0.04269	-0.00422	0.09808	0.02419	-0.05663	0.00555
2.93400	0.00096	0.00068	0.00046	0.00077	0.00000	-89.73000	0.04269	-0.00422	0.09808	0.02419	-0.05663	0.00555
2.93600	0.00096	0.00068	0.00046	0.00077	-3.96880	-89.73000	0.04269	-0.00422	0.09808	0.02419	-0.05663	0.00555
2.93800	0.00096	0.00068	0.00046	0.00077	-3.96880	-89.82000	0.04269	-0.00422	0.09808	0.02419	-0.05663	0.00555
2.94000	0.00009	-0.00018	0.00097	0.00059	-3.87860	-89.82000	0.03549	-0.02171	0.12368	0.02659	-0.05314	0.00506
2.94200	0.00009	-0.00018	0.00097	0.00059	0.00000	0.00000	0.03549	-0.02171	0.12368	0.02659	-0.05314	0.00506
2.94400	0.00009	-0.00018	0.00097	0.00059	-3.69820	-89.82000	0.03549	-0.02171	0.12368	0.02659	-0.05314	0.00506
2.94600	0.00009	-0.00018	0.00097	0.00059	-3.78840	-89.73000	0.03549	-0.02171	0.12368	0.02659	-0.05314	0.00506
2.94800	-0.00060	0.00134	0.00079	0.00035	-3.78840	-89.73000	0.03477	0.01821	0.08898	0.02770	-0.04978	0.00738
2.95000	-0.00060	0.00134	0.00079	0.00035	0.00000	0.00000	0.03477	0.01821	0.08898	0.02770	-0.04978	0.00738
2.95200	-0.00060	0.00134	0.00079	0.00035	-3.87860	-89.82000	0.03477	0.01821	0.08898	0.02770	-0.04978	0.00738
2.95400	-0.00060	0.00134	0.00079	0.00035	-3.87860	-89.73000	0.03477	0.01821	0.08898	0.02770	-0.04978	0.00738
2.95600	-0.00005	-0.00012	0.00082	0.00009	0.00000	0.00000	-0.00905	0.01975	0.09376	0.02440	-0.04642	0.00833
2.95800	0.00226	0.00017	0.00064	0.00037	-3.96880	-89.82000	-0.00905	0.01975	0.09376	0.02440	-0.04642	0.00833
2.96000	0.00226	0.00017	0.00064	0.00037	-3.87860	-89.64000	-0.00905	0.01975	0.09376	0.02440	-0.04642	0.00833
2.96200	0.00226	0.00017	0.00064	0.00037	-3.87860	-89.55000	-0.00905	0.01975	0.09376	0.02440	-0.04642	0.00833
2.96400	0.00226	0.00017	0.00064	0.00037	0.00000	0.00000	-0.00905	0.01975	0.09376	0.02440	-0.04642	0.00833
2.96600	0.00061	0.00124	0.00089	0.00017	-3.87860	-89.64000	-0.02510	0.05875	0.11196	0.03597	-0.03174	0.00984
2.96800	0.00061	0.00124	0.00089	0.00017	-3.96880	-89.73000	-0.02510	0.05875	0.11196	0.03597	-0.03174	0.00984
2.97000	0.00061	0.00124	0.00089	0.00017	-3.96880	-89.82000	-0.02510	0.05875	0.11196	0.03597	-0.03174	0.00984
2.97200	0.00061	0.00124	0.00089	0.00017	-3.96880	-89.91000	-0.02510	0.05875	0.11196	0.03597	-0.03174	0.00984
2.97400	0.00001	0.00010	0.00096	0.00009	-3.96880	-89.91000	-0.05163	0.06121	0.11705	0.03619	-0.03094	0.00747
2.97600	0.00001	0.00010	0.00096	0.00009	-3.78840	-89.91000	-0.05163	0.06121	0.11705	0.03619	-0.03094	0.00747
2.97800	0.00001	0.00010	0.00096	0.00009	0.00000	0.00000	-0.05163	0.06121	0.11705	0.03619	-0.03094	0.00747
2.98000	0.00001	0.00010	0.00096	0.00009	-3.78840	-89.73000	-0.05163	0.06121	0.11705	0.03619	-0.03094	0.00747
2.98200	-0.00002	0.00163	0.00040	0.00048	-3.78840	-89.82000	-0.05163	0.06121	0.11705	0.03619	-0.03094	0.00747
2.98400	-0.00026	-0.00016	0.00061	0.00075	-3.69820	-89.82000	-0.06542	0.02119	0.13324	0.03366	-0.02745	0.00793
2.98600	-0.00026	-0.00016	0.00061	0.00075	0.00000	0.00000	-0.06542	0.02119	0.13324	0.03366	-0.02745	0.00793
2.98800	-0.00026	-0.00016	0.00061	0.00075	-3.78840	-89.73000	-0.06542	0.02119	0.13324	0.03366	-0.02745	0.00793
2.99000	-0.00026	-0.00016	0.00061	0.00075	-3.78840	-89.73000	-0.06542	0.02119	0.13324	0.03366	-0.02745	0.00793
2.99200	0.00098	0.00023	0.00069	0.00065	-3.87860	-89.73000	-0.02170	-0.00175	0.12707	0.03032	-0.02760	0.00673
2.99400	0.00098	0.00023	0.00069	0.00065	0.00000	0.00000	-0.02170	-0.00175	0.12707	0.03032	-0.02760	0.00673
2.99600	0.00098	0.00023	0.00069	0.00065	-3.87860	-89.82000	-0.02170	-0.00175	0.12707	0.03032	-0.02760	0.00673
2.99800	0.00098	0.00023	0.00069	0.00065	-3.87860	-89.73000	-0.02170	-0.00175	0.12707	0.03032	-0.02760	0.00673
3.00000	0.00002	0.00105	0.00069	0.00084	-3.96880	-89.73000	-0.04001	-0.03549	0.10595	0.02989	-0.03479	0.00636
3.00200	0.00002	0.00105	0.00069	0.00084	-3.87860	-89.82000	-0.04001	-0.03549	0.10595	0.02989	-0.03479	0.00636
3.00400	0.00002	0.00105	0.00069	0.00084	-3.87860	-89.82000	-0.04001	-0.03549	0.10595	0.02989	-0.03479	0.00636
3.00600	0.00002	0.00105	0.00069	0.00084	-3.78840	-89.91000	-0.04001	-0.03549	0.10595	0.02989	-0.03479	0.00636
3.00800	-0.00002	0.00037	0.00101	0.00080	0.00000	0.00000	-0.04001	-0.03549	0.10595	0.02989	-0.03479	0.00636
3.01000	-0.00093	0.00130	0.00066	-0.00008	-3.87860	-89.73000	0.01347	-0.00977	0.11844	0.02807	-0.04124	0.00500
3.01200	-0.00093	0.00130	0.00066	-0.00008	-3.96880	-89.82000	0.01347	-0.00977	0.11844	0.02807	-0.04124	0.00500
3.01400	-0.00093	0.00130	0.00066	-0.00008	-3.96880	-89.82000	0.03189	0.01111	0.11088	0.02949	-0.05348	0.00596
