% Original filename: Decay 90Deg Spring0009.mat
90 Deg Decay Spring Run 4 2018-04-13
Time(s) Response(deg) LoadCell(N)
0.000000 -2.340818 0.075030
0.020000 -2.339493 0.070857
0.040000 -2.338382 0.075744
0.060000 -2.337473 0.060957
0.080000 -2.336751 0.071669
0.100000 -2.336204 0.069093
0.120000 -2.335818 0.071263
0.140000 -2.335582 0.070395
0.160000 -2.335480 0.068813
0.180000 -2.335501 0.073980
0.200000 -2.335630 0.072789
0.220000 -2.335856 0.072411
0.240000 -2.336165 0.077061
0.260000 -2.336543 0.068266
0.280000 -2.336978 0.068925
0.300000 -2.337456 0.067790
0.320000 -2.337964 0.073798
0.340000 -2.338490 0.069317
0.360000 -2.339020 0.067622
0.380000 -2.339540 0.067454
0.400000 -2.340039 0.063743
0.420000 -2.340135 0.066012
0.440000 -2.340326 0.069933
0.460000 -2.341110 0.068560
0.480000 -2.339933 0.071529
0.500000 -2.338927 0.066628
0.520000 -2.339163 0.065396
0.540000 -2.339265 0.067104
0.560000 -2.339212 0.065480
0.580000 -2.337762 0.064710
0.600000 -2.337109 0.069065
0.620000 -2.336686 0.067748
0.640000 -2.335573 0.069429
0.660000 -2.336280 0.070899
0.680000 -2.336317 0.066320
0.700000 -2.335745 0.066124
0.720000 -2.336524 0.072972
0.740000 -2.335901 0.066054
0.760000 -2.336861 0.070171
0.780000 -2.336317 0.074820
0.800000 -2.335123 0.066362
0.820000 -2.334712 0.066796
0.840000 -2.333939 0.067846
0.860000 -2.340517 0.069359
0.880000 -2.343528 0.075478
0.900000 -2.347404 0.071613
0.920000 -2.342838 0.074736
0.940000 -2.357615 0.074456
0.960000 -2.371947 0.075632
0.980000 -2.369766 0.076430
1.000000 -2.388252 0.072173
1.020000 -2.435278 0.061769
1.040000 -2.497967 0.072705
1.060000 -2.563516 0.071445
1.080000 -2.622987 0.058394
1.100000 -2.591415 0.068420
1.120000 -2.552917 0.071123
1.140000 -2.494543 0.064037
1.160000 -2.422628 0.069709
1.180000 -2.331566 0.063869
1.200000 -2.224540 0.067272
1.220000 -2.104124 0.069569
1.240000 -1.970030 0.072005
1.260000 -1.907840 0.072874
1.280000 -1.804806 0.070535
1.300000 -1.670532 0.071165
1.320000 -1.504266 0.073392
1.340000 -1.293792 0.070927
1.360000 -0.982862 0.071557
1.380000 -0.749149 0.071991
1.400000 -0.492262 0.070101
1.420000 -0.221970 0.070661
1.440000 0.056890 0.068140
1.460000 0.342724 0.068140
1.480000 0.633529 0.072019
1.500000 0.926039 0.065200
1.520000 1.209603 0.063911
1.540000 1.496809 0.068588
1.560000 1.775763 0.066082
1.580000 2.042414 0.066600
1.600000 2.296112 0.069163
1.620000 2.536681 0.071599
1.640000 2.760933 0.061559
1.660000 2.967424 0.065676
1.680000 3.166885 0.070661
1.700000 3.327383 0.073140
1.720000 3.464690 0.072621
1.740000 3.565834 0.068196
1.760000 3.655856 0.072201
1.780000 3.717462 0.071837
1.800000 3.717154 0.068743
1.820000 3.718015 0.067048
1.840000 3.746122 0.063421
1.860000 3.796173 0.069401
1.880000 3.883406 0.071599
1.900000 4.069761 0.069079
1.920000 4.163592 0.071277
1.940000 4.236293 0.066054
1.960000 4.277656 0.073000
1.980000 4.296013 0.076220
2.000000 4.288191 0.068518
2.020000 4.248798 0.069793
2.040000 4.178457 0.065284
2.060000 4.080994 0.066488
2.080000 4.061810 0.063785
2.100000 4.029580 0.061181
2.120000 3.993129 0.065858
2.140000 3.956223 0.074134
2.160000 3.886901 0.071599
2.180000 3.710515 0.066152
2.200000 3.597866 0.077593
2.220000 3.467045 0.074540
2.240000 3.319792 0.070983
2.260000 3.166941 0.068210
2.280000 3.003965 0.068799
2.300000 2.826826 0.075114
2.320000 2.638833 0.065144
2.340000 2.458722 0.068238
2.360000 2.266323 0.068182
2.380000 2.064441 0.067804
2.400000 1.861231 0.072159
2.420000 1.663443 0.065872
2.440000 1.465962 0.069457
2.460000 1.265664 0.070619
2.480000 1.067448 0.068869
2.500000 0.869447 0.069695
2.520000 0.688479 0.064696
2.540000 0.516498 0.065144
2.560000 0.357937 0.066684
2.580000 0.211253 0.063603
2.600000 0.093168 0.067944
2.620000 0.015857 0.064626
2.640000 -0.031499 0.066880
2.660000 -0.053215 0.060817
2.680000 -0.038280 0.066166
2.700000 -0.006964 0.068518
2.720000 -0.037896 0.067132
2.740000 -0.058871 0.063883
2.760000 -0.069194 0.068070
2.780000 -0.069160 0.068743
2.800000 -0.062442 0.073056
2.820000 -0.055692 0.068140
2.840000 -0.043842 0.064037
2.860000 -0.020817 0.065900
2.880000 0.004564 0.062749
2.900000 0.037558 0.070157
2.920000 0.077211 0.061811
2.940000 0.121372 0.062413
2.960000 0.159969 0.069177
2.980000 0.206452 0.067258
3.000000 0.250150 0.065102
3.020000 0.296365 0.068743
3.040000 0.340371 0.066964
3.060000 0.386938 0.078825
3.080000 0.427680 0.068799
3.100000 0.465479 0.069793
3.120000 0.505360 0.076416
3.140000 0.542858 0.071627
3.160000 0.570690 0.072229
3.180000 0.593817 0.063267
3.200000 0.616655 0.059178
3.220000 0.638051 0.068182
3.240000 0.650466 0.066768
3.260000 0.657139 0.073196
3.280000 0.664770 0.066362
3.300000 0.667700 0.075296
3.320000 0.662665 0.065690
3.340000 0.656168 0.069107
3.360000 0.648436 0.071361
3.380000 0.636045 0.060256
3.400000 0.627873 0.069695
3.420000 0.615412 0.069597
3.440000 0.607927 0.067062
3.460000 0.598557 0.071935
3.480000 0.587730 0.061377
3.500000 0.573509 0.071095
3.520000 0.559625 0.069681
3.540000 0.542957 0.067146
3.560000 0.525361 0.064429
3.580000 0.507190 0.069191
3.600000 0.488874 0.074750
3.620000 0.470736 0.071347
3.640000 0.452537 0.070717
3.660000 0.436466 0.065956
3.680000 0.419061 0.072467
3.700000 0.403016 0.070815
3.720000 0.385372 0.066880
3.740000 0.367757 0.074526
3.760000 0.349157 0.064584
3.780000 0.331570 0.064415
3.800000 0.313184 0.063211
3.820000 0.295814 0.070171
3.840000 0.278801 0.071305
3.860000 0.262340 0.069457
3.880000 0.246586 0.070255
3.900000 0.231421 0.071347
3.920000 0.216887 0.055187
3.940000 0.202045 0.070857
3.960000 0.187942 0.063841
3.980000 0.173459 0.072005
4.000000 0.159740 0.080421
4.020000 0.146193 0.072607
4.040000 0.133645 0.066558
4.060000 0.121209 0.066838
4.080000 0.109809 0.072383
4.100000 0.098748 0.070087
4.120000 0.088337 0.069793
4.140000 0.078415 0.075366
4.160000 0.068934 0.069793
4.180000 0.059779 0.074806
4.200000 0.050885 0.072341
4.220000 0.042576 0.074750
4.240000 0.034492 0.073210
4.260000 0.027146 0.067034
4.280000 0.020143 0.071137
4.300000 0.013796 0.074358
4.320000 0.007706 0.068532
4.340000 0.002261 0.068504
4.360000 -0.002967 0.073532
4.380000 -0.007722 0.073168
4.400000 -0.012204 0.075478
4.420000 -0.016352 0.068252
4.440000 -0.020225 0.068658
4.460000 -0.023751 0.067972
4.480000 -0.026900 0.070913
4.500000 -0.029773 0.072607
4.520000 -0.032222 0.066208
4.540000 -0.034460 0.071641
4.560000 -0.036353 0.064233
4.580000 -0.038075 0.071767
4.600000 -0.039475 0.062273
4.620000 -0.040757 0.067314
4.640000 -0.041765 0.075086
4.660000 -0.042637 0.069611
4.680000 -0.043291 0.070941
4.700000 -0.043779 0.072677
4.720000 -0.044057 0.070045
4.740000 -0.044169 0.075772
4.760000 -0.044133 0.068014
4.780000 -0.043932 0.068126
4.800000 -0.043646 0.078587
4.820000 -0.043219 0.068322
4.840000 -0.042723 0.076598
4.860000 -0.042103 0.072775
4.880000 -0.041441 0.071053
4.900000 -0.040660 0.076738
4.920000 -0.039839 0.067888
4.940000 -0.038923 0.071753
4.960000 -0.037958 0.079133
4.980000 -0.036923 0.073028
5.000000 -0.035857 0.072117
5.020000 -0.034751 0.072061
5.040000 -0.033617 0.065984
5.060000 -0.032473 0.078321
5.080000 -0.031299 0.078573
5.100000 -0.030126 0.079497
5.120000 -0.028930 0.073952
5.140000 -0.027744 0.072719
5.160000 -0.026537 0.065662
5.180000 -0.025347 0.072789
5.200000 -0.024145 0.075772
5.220000 -0.022963 0.076696
5.240000 -0.021787 0.077677
5.260000 -0.020635 0.071991
5.280000 -0.019499 0.073910
5.300000 -0.018387 0.071739
5.320000 -0.017298 0.071291
5.340000 -0.016230 0.075814
5.360000 -0.015191 0.074582
5.380000 -0.014174 0.071795
5.400000 -0.013189 0.078363
5.420000 -0.012226 0.073084
5.440000 -0.011301 0.067776
5.460000 -0.010399 0.071417
5.480000 -0.009536 0.064822
5.500000 -0.008701 0.075240
5.520000 -0.007904 0.068280
5.540000 -0.007136 0.071935
5.560000 -0.006404 0.072313
5.580000 -0.005701 0.073378
5.600000 -0.005031 0.069499
5.620000 -0.004394 0.074778
5.640000 -0.003787 0.070591
5.660000 -0.003213 0.071207
5.680000 -0.002667 0.071683
5.700000 -0.002156 0.066810
5.720000 -0.001672 0.069051
5.740000 -0.001220 0.067104
5.760000 -0.000795 0.071081
5.780000 -0.000400 0.061377
5.800000 -0.000030 0.069443
5.820000 0.000313 0.070843
5.840000 0.000631 0.065564
5.860000 0.000924 0.069807
5.880000 0.001194 0.066390
5.900000 0.001440 0.070773
5.920000 0.001664 0.059780
5.940000 0.001867 0.073924
5.960000 0.002049 0.072103
5.980000 0.002212 0.067062
6.000000 0.002355 0.062665
6.020000 0.002483 0.064289
6.040000 0.002592 0.070171
6.060000 0.002686 0.067790
6.080000 0.002765 0.075086
6.100000 0.002830 0.059094
6.120000 0.002881 0.055593
6.140000 0.002919 0.065438
6.160000 0.002946 0.063001
6.180000 0.002961 0.068210
6.200000 0.002966 0.068098
6.220000 0.002961 0.073406
6.240000 0.002948 0.072229
6.260000 0.002926 0.069527
6.280000 0.002897 0.064696
6.300000 0.002860 0.073672
6.320000 0.002818 0.075352
6.340000 0.002770 0.074008
6.360000 0.002716 0.071921
6.380000 0.002658 0.068644
6.400000 0.002596 0.073112
6.420000 0.002530 0.065802
6.440000 0.002461 0.073938
6.460000 0.002389 0.068883
6.480000 0.002314 0.071109
6.500000 0.002239 0.067720
6.520000 0.002161 0.067846
6.540000 0.002082 0.074708
6.560000 0.002003 0.072846
6.580000 0.001923 0.068308
6.600000 0.001842 0.065172
6.620000 0.001762 0.074288
6.640000 0.001682 0.069009
6.660000 0.001602 0.071319
6.680000 0.001523 0.069331
6.700000 0.001445 0.063939
6.720000 0.001368 0.069989
6.740000 0.001293 0.069023
6.760000 0.001218 0.061153
6.780000 0.001146 0.070143
6.800000 0.001075 0.064724
6.820000 0.001005 0.066278
6.840000 0.000938 0.069569
6.860000 0.000872 0.065760
6.880000 0.000809 0.061293
6.900000 0.000747 0.061601
6.920000 0.000688 0.070241
6.940000 0.000631 0.073728
6.960000 0.000576 0.071347
6.980000 0.000523 0.071711
7.000000 0.000472 0.073854
7.020000 0.000423 0.066978
7.040000 0.000377 0.077551
7.060000 0.000333 0.072201
7.080000 0.000291 0.065102
7.100000 0.000251 0.071767
7.120000 0.000213 0.060439
7.140000 0.000177 0.066670
7.160000 0.000144 0.068743
7.180000 0.000112 0.070857
7.200000 0.000082 0.063687
7.220000 0.000054 0.074722
7.240000 0.000028 0.075786
7.260000 0.000004 0.067412
7.280000 -0.000018 0.070367
7.300000 -0.000039 0.059948
7.320000 -0.000058 0.064500
7.340000 -0.000076 0.061867
7.360000 -0.000092 0.063197
7.380000 -0.000106 0.067860
7.400000 -0.000120 0.059682
7.420000 -0.000131 0.062315
7.440000 -0.000142 0.067006
7.460000 -0.000151 0.062287
7.480000 -0.000159 0.073224
7.500000 -0.000166 0.065284
7.520000 -0.000172 0.068126
7.540000 -0.000177 0.069793
7.560000 -0.000181 0.071557
7.580000 -0.000185 0.065956
7.600000 -0.000187 0.071263
7.620000 -0.000188 0.069877
7.640000 -0.000189 0.064233
7.660000 -0.000189 0.060859
7.680000 -0.000189 0.066222
7.700000 -0.000188 0.058912
7.720000 -0.000186 0.067832
7.740000 -0.000184 0.060929
7.760000 -0.000181 0.073728
7.780000 -0.000179 0.067608
7.800000 -0.000175 0.069695
7.820000 -0.000171 0.063883
7.840000 -0.000167 0.075226
7.860000 -0.000163 0.067426
7.880000 -0.000159 0.069275
7.900000 -0.000154 0.067916
7.920000 -0.000149 0.068168
7.940000 -0.000144 0.067832
7.960000 -0.000139 0.073378
7.980000 -0.000134 0.065774
8.000000 -0.000129 0.062903
8.020000 -0.000123 0.067902
8.040000 -0.000118 0.067216
8.060000 -0.000112 0.067230
8.080000 -0.000107 0.069107
8.100000 -0.000102 0.079497
8.120000 -0.000096 0.071949
8.140000 -0.000091 0.064892
8.160000 -0.000086 0.064345
8.180000 -0.000081 0.064892
8.200000 -0.000076 0.070297
8.220000 -0.000071 0.076052
8.240000 -0.000066 0.071683
8.260000 -0.000061 0.076738
8.280000 -0.000057 0.063897
8.300000 -0.000052 0.069247
8.320000 -0.000048 0.064261
8.340000 -0.000044 0.071347
8.360000 -0.000040 0.073616
8.380000 -0.000036 0.069961
8.400000 -0.000032 0.065326
8.420000 -0.000028 0.071669
8.440000 -0.000025 0.064177
8.460000 -0.000021 0.064247
8.480000 -0.000018 0.062063
8.500000 -0.000015 0.065648
8.520000 -0.000012 0.062665
8.540000 -0.000009 0.069443
8.560000 -0.000007 0.069709
8.580000 -0.000004 0.066908
8.600000 -0.000002 0.071739
8.620000 0.000000 0.064626
8.640000 0.000002 0.072383
8.660000 0.000004 0.064752
8.680000 0.000006 0.066488
8.700000 0.000008 0.072145
8.720000 0.000009 0.065424
8.740000 0.000011 0.070633
8.760000 0.000012 0.073616
8.780000 0.000014 0.069401
8.800000 0.000015 0.067300
8.820000 0.000016 0.070563
8.840000 0.000017 0.064948
8.860000 0.000018 0.068602
8.880000 0.000018 0.072635
8.900000 0.000019 0.067090
8.920000 0.000020 0.071025
8.940000 0.000020 0.063407
8.960000 0.000021 0.059150
8.980000 0.000021 0.062315
9.000000 0.000021 0.062553
9.020000 0.000022 0.057036
9.040000 0.000022 0.066824
9.060000 0.000022 0.069499
9.080000 0.000022 0.065536
9.100000 0.000022 0.065774
9.120000 0.000022 0.069569
9.140000 0.000022 0.071473
9.160000 0.000022 0.066012
9.180000 0.000022 0.071179
9.200000 0.000022 0.068028
9.220000 0.000021 0.072523
9.240000 0.000021 0.065732
9.260000 0.000021 0.065382
9.280000 0.000021 0.061433
9.300000 0.000020 0.069877
9.320000 0.000020 0.069821
9.340000 0.000020 0.063197
9.360000 0.000020 0.068448
9.380000 0.000019 0.072341
9.400000 0.000019 0.072747
9.420000 0.000018 0.072719
9.440000 0.000018 0.071403
9.460000 0.000018 0.065480
9.480000 0.000017 0.064037
9.500000 0.000017 0.070997
9.520000 0.000017 0.064836
9.540000 0.000016 0.068350
9.560000 0.000016 0.065676
9.580000 0.000016 0.062805
9.600000 0.000015 0.067664
9.620000 0.000015 0.069513
9.640000 0.000015 0.069499
9.660000 0.000014 0.066530
9.680000 0.000014 0.071767
9.700000 0.000014 0.075282
9.720000 0.000013 0.069989
9.740000 0.000013 0.071291
9.760000 0.000013 0.065760
9.780000 0.000012 0.063743
9.800000 0.000012 0.067566
9.820000 0.000012 0.067440
9.840000 0.000012 0.066110
9.860000 0.000011 0.065914
9.880000 0.000011 0.062511
9.900000 0.000011 0.063953
9.920000 0.000011 0.070325
9.940000 0.000010 0.067216
9.960000 0.000010 0.071067
9.980000 0.000010 0.067300
10.000000 0.000010 0.070521
10.020000 0.000010 0.064500
10.040000 0.000010 0.075436
10.060000 0.000009 0.072047
10.080000 0.000009 0.077075
10.100000 0.000009 0.069989
10.120000 0.000009 0.070815
10.140000 0.000009 0.074834
10.160000 0.000009 0.074120
10.180000 0.000009 0.067916
10.200000 0.000009 0.073462
10.220000 0.000008 0.077187
10.240000 0.000008 0.070115
10.260000 0.000008 0.068364
10.280000 0.000008 0.072173
10.300000 0.000008 0.067034
10.320000 0.000008 0.073784
10.340000 0.000008 0.073476
10.360000 0.000008 0.081178
10.380000 0.000008 0.075198
10.400000 0.000008 0.072229
10.420000 0.000008 0.075212
10.440000 0.000008 0.077299
10.460000 0.000008 0.068070
10.480000 0.000008 0.064219
10.500000 0.000008 0.067580
10.520000 0.000008 0.065634
10.540000 0.000008 0.071403
10.560000 0.000008 0.070591
10.580000 0.000008 0.066502
10.600000 0.000008 0.067468
10.620000 0.000008 0.078083
10.640000 0.000008 0.071613
10.660000 0.000008 0.071529
10.680000 0.000008 0.071599
10.700000 0.000008 0.069485
10.720000 0.000008 0.066166
10.740000 0.000008 0.068462
10.760000 0.000008 0.067048
10.780000 0.000008 0.073476
10.800000 0.000008 0.076178
10.820000 0.000008 0.073350
10.840000 0.000008 0.066866
10.860000 0.000008 0.075296
10.880000 0.000008 0.068925
10.900000 0.000008 0.061867
10.920000 0.000008 0.063827
10.940000 0.000008 0.070829
10.960000 0.000008 0.066404
10.980000 0.000008 0.080309
11.000000 0.000008 0.067468
11.020000 0.000008 0.070353
11.040000 0.000008 0.074470
11.060000 0.000008 0.071305
11.080000 0.000008 0.067524
11.100000 0.000008 0.062749
11.120000 0.000008 0.069247
11.140000 0.000008 0.065536
11.160000 0.000008 0.070983
11.180000 0.000008 0.070633
11.200000 0.000008 0.066418
11.220000 0.000008 0.064289
11.240000 0.000008 0.075100
11.260000 0.000008 0.070829
11.280000 0.000008 0.073154
11.300000 0.000009 0.066404
11.320000 0.000009 0.070927
11.340000 0.000009 0.072411
11.360000 0.000009 0.070801
11.380000 0.000009 0.073742
11.400000 0.000009 0.076556
11.420000 0.000009 0.072705
11.440000 0.000009 0.079105
11.460000 0.000009 0.071753
11.480000 0.000009 0.069975
11.500000 0.000009 0.073910
11.520000 0.000009 0.069933
11.540000 0.000009 0.063897
11.560000 0.000009 0.069947
11.580000 0.000009 0.067846
11.600000 0.000009 0.062091
11.620000 0.000009 0.068644
11.640000 0.000009 0.073616
11.660000 0.000009 0.073812
11.680000 0.000009 0.071277
11.700000 0.000009 0.071403
11.720000 0.000009 0.066110
11.740000 0.000009 0.065116
11.760000 0.000009 0.070773
11.780000 0.000009 0.067034
11.800000 0.000009 0.070983
11.820000 0.000009 0.080057
11.840000 0.000009 0.070129
11.860000 0.000009 0.072383
11.880000 0.000009 0.070675
11.900000 0.000009 0.070591
11.920000 0.000009 0.069877
11.940000 0.000009 0.067622
11.960000 0.000009 0.075142
11.980000 0.000009 0.071599
12.000000 0.000009 0.075968
12.020000 0.000009 0.071445
12.040000 0.000009 0.071837
12.060000 0.000009 0.067986
12.080000 0.000009 0.070325
12.100000 0.000009 0.073406
12.120000 0.000009 0.076276
12.140000 0.000009 0.072439
12.160000 0.000009 0.067930
12.180000 0.000009 0.071347
12.200000 0.000009 0.069751
12.220000 0.000009 0.067986
12.240000 0.000009 0.075464
12.260000 0.000009 0.072201
12.280000 0.000009 0.064920
12.300000 0.000009 0.072972
12.320000 0.000009 0.068883
12.340000 0.000009 0.064822
12.360000 0.000009 0.075800
12.380000 0.000009 0.082816
12.400000 0.000009 0.067566
12.420000 0.000009 0.068953
12.440000 0.000009 0.066684
12.460000 0.000009 0.067216
12.480000 0.000009 0.064023
12.500000 0.000009 0.073266
12.520000 0.000009 0.066488
12.540000 0.000009 0.074008
12.560000 0.000009 0.064920
12.580000 0.000009 0.066670
12.600000 0.000009 0.064906
12.620000 0.000009 0.067244
12.640000 0.000009 0.068701
12.660000 0.000009 0.066432
12.680000 0.000009 0.066320
12.700000 0.000009 0.064107
12.720000 0.000009 0.064163
12.740000 0.000009 0.070773
12.760000 0.000009 0.066404
12.780000 0.000009 0.076024
12.800000 0.000009 0.065144
12.820000 0.000009 0.072439
12.840000 0.000009 0.068196
12.860000 0.000009 0.059584
12.880000 0.000009 0.072930
12.900000 0.000009 0.069149
12.920000 0.000009 0.071697
12.940000 0.000009 0.068014
12.960000 0.000009 0.074134
12.980000 0.000009 0.068743
13.000000 0.000009 0.064570
13.020000 0.000009 0.066292
13.040000 0.000009 0.072145
13.060000 0.000009 0.066124
13.080000 0.000009 0.067874
13.100000 0.000009 0.060467
13.120000 0.000009 0.065606
13.140000 0.000009 0.062371
13.160000 0.000009 0.061671
13.180000 0.000009 0.057652
13.200000 0.000009 0.070843
13.220000 0.000009 0.069331
13.240000 0.000009 0.069527
13.260000 0.000009 0.068729
13.280000 0.000009 0.064556
13.300000 0.000009 0.067426
13.320000 0.000009 0.068406
13.340000 0.000009 0.070885
13.360000 0.000009 0.059710
13.380000 0.000009 0.067720
13.400000 0.000009 0.058660
13.420000 0.000009 0.072705
13.440000 0.000009 0.063617
13.460000 0.000009 0.057386
13.480000 0.000009 0.073154
13.500000 0.000009 0.072229
13.520000 0.000009 0.066964
13.540000 0.000009 0.063253
13.560000 0.000009 0.065172
13.580000 0.000009 0.070759
13.600000 0.000009 0.064822
13.620000 0.000009 0.054529
13.640000 0.000009 0.062413
13.660000 0.000009 0.059584
13.680000 0.000009 0.061587
13.700000 0.000009 0.059276
13.720000 0.000009 0.068476
13.740000 0.000009 0.064920
13.760000 0.000009 0.063953
13.780000 0.000009 0.067930
13.800000 0.000009 0.068154
13.820000 0.000009 0.064191
13.840000 0.000009 0.068504
13.860000 0.000009 0.068953
13.880000 0.000009 0.071361
13.900000 0.000009 0.068813
13.920000 0.000009 0.073574
13.940000 0.000009 0.064107
13.960000 0.000009 0.078671
13.980000 0.000009 0.074792
14.000000 0.000009 0.066936
14.020000 0.000009 0.065200
14.040000 0.000009 0.064612
14.060000 0.000009 0.070017
14.080000 0.000009 0.067776
14.100000 0.000009 0.075478
14.120000 0.000009 0.070675
14.140000 0.000009 0.073728
14.160000 0.000009 0.069611
14.180000 0.000009 0.063099
14.200000 0.000009 0.067454
14.220000 0.000009 0.065970
14.240000 0.000009 0.072243
14.260000 0.000009 0.068350
14.280000 0.000009 0.068406
14.300000 0.000009 0.063239
14.320000 0.000009 0.066712
14.340000 0.000009 0.057456
14.360000 0.000009 0.067748
14.380000 0.000009 0.066824
14.400000 0.000009 0.072439
14.420000 0.000009 0.069583
14.440000 0.000009 0.068476
14.460000 0.000009 0.069541
14.480000 0.000009 0.070185
14.500000 0.000009 0.069681
14.520000 0.000009 0.066068
14.540000 0.000009 0.067958
14.560000 0.000009 0.059500
14.580000 0.000009 0.070745
14.600000 0.000009 0.077593
14.620000 0.000009 0.064752
14.640000 0.000009 0.061769
14.660000 0.000009 0.062105
14.680000 0.000009 0.062707
14.700000 0.000009 0.063897
14.720000 0.000009 0.074022
14.740000 0.000009 0.072229
14.760000 0.000009 0.066866
14.780000 0.000009 0.063743
14.800000 0.000009 0.066782
14.820000 0.000009 0.066600
14.840000 0.000009 0.066040
14.860000 0.000009 0.064990
14.880000 0.000009 0.063505
14.900000 0.000009 0.065676
14.920000 0.000009 0.075884
14.940000 0.000009 0.067202
14.960000 0.000009 0.071795
14.980000 0.000009 0.075352
15.000000 0.000009 0.070045
15.020000 0.000009 0.074680
15.040000 0.000009 0.062553
15.060000 0.000009 0.065620
15.080000 0.000009 0.070059
15.100000 0.000009 0.069177
15.120000 0.000009 0.072173
15.140000 0.000009 0.073028
15.160000 0.000009 0.069191
15.180000 0.000009 0.068294
15.200000 0.000009 0.070997
15.220000 0.000009 0.069933
15.240000 0.000009 0.069037
15.260000 0.000009 0.073756
15.280000 0.000009 0.067454
15.300000 0.000009 0.065200
15.320000 0.000009 0.073014
15.340000 0.000009 0.072495
15.360000 0.000009 0.068056
15.380000 0.000009 0.069835
15.400000 0.000009 0.071557
15.420000 0.000009 0.069667
15.440000 0.000009 0.064149
15.460000 0.000009 0.069471
15.480000 0.000009 0.071081
15.500000 0.000009 0.076892
15.520000 0.000009 0.074918
15.540000 0.000009 0.068799
15.560000 0.000009 0.075660
15.580000 0.000009 0.076318