/***********************************************************
* Ocean Resources and Renewable Energy Laboratory
* Version: v1.0 (Released on May 1st, 2021)
* Programmed by: Jessica Nguyen (Email: nvnguyen@umass.edu)
*----------------------------------------------------------
* Project Name:	NREL_VGOSWEC_freedecay_VGM20
* Project Lead:	JD
* Labview Operator:	JD
* Comments:	VGOSWEC scale model with 5.25" diameter cylindrical foundation and three pairs of opposing torsional springs. Model centered in window 2,  193.5 in from the start of the tank; probe positions: probe 1 (staff, front) - 134 in; probe 2 (sonic, alongside) - 193.5 in; probe 3 (staff, behind) - 274.5 in ; probe 4 (sonic, behind) - 332.5 in. Data aquisition specifications: wave start time: 0 s; wave end time: 40 s; delta t: 0.05; ramp time: 3 s; end time delay: 20 s; sampling rate: 2 ms. Kistler force cal factor: 1 V/N (X), 1 V/N (Y), 0.6667 V/N (Z); Kistler moment cal factor: 1 V/Nm (Y), 1  V Nm (X,Z). Naming convention: T(period)_A(actuator amp)_B(beach distance)_VGM(variable geometry module angle).
* Date and Time:	Thu 17 Jun 2021 08:50:20 PM EDT
***********************************************************/

"Time(s)"	"WP1(m)"	"WP2(m)"	"WP3(m)"	"WP4(m)"	"Roll(deg)"	"Pitch(deg)"	"ForceX(N)"	"ForceY(N)"	"ForceZ(N)"	"MomentX"	"MomentY"	"MomentZ"	
0.00000	-2.04004	-1.96297	-0.47417	-0.44938	-3.87860	-89.82000	0.01549	-0.02860	-0.04961	-0.00500	-0.01210	-0.00356
0.00200	-2.04004	-1.96297	-0.47417	-0.44938	-3.87860	-89.82000	0.01549	-0.02860	-0.04961	-0.00500	-0.01210	-0.00356
0.00400	-2.04004	-1.96297	-0.47417	-0.44938	-3.87860	-89.73000	0.01549	-0.02860	-0.04961	-0.00500	-0.01210	-0.00356
0.00600	-2.04004	-1.96297	-0.47417	-0.44938	-3.87860	-89.91000	0.01549	-0.02860	-0.04961	-0.00500	-0.01210	-0.00356
0.00800	-2.04004	-1.96297	-0.47417	-0.44938	-3.96880	-89.91000	0.01549	-0.02860	-0.04961	-0.00500	-0.01210	-0.00356
0.01000	-0.00034	0.00069	0.00082	0.00191	0.00000	0.00000	-0.01152	-0.06667	-0.06739	-0.01635	0.00041	0.00864
0.01200	-0.00033	0.00049	0.00062	0.00171	-3.78840	-89.82000	-0.01152	-0.06667	-0.06739	-0.01635	0.00041	0.00864
0.01400	-0.00033	0.00049	0.00062	0.00171	-3.78840	-89.82000	-0.01152	-0.06667	-0.06739	-0.01635	0.00041	0.00864
0.01600	-0.00033	0.00049	0.00062	0.00171	-3.78840	-89.73000	-0.01152	-0.06667	-0.06739	-0.01635	0.00041	0.00864
0.01800	-0.00033	0.00049	0.00062	0.00171	-3.87860	-89.82000	-0.01152	-0.06667	-0.06739	-0.01635	0.00041	0.00864
0.02000	-0.00009	0.00226	0.00077	0.00214	-3.96880	-89.82000	0.02633	-0.10319	-0.07958	-0.01707	-0.01182	0.00607
0.02200	-0.00009	0.00226	0.00077	0.00214	-3.96880	-89.73000	0.02633	-0.10319	-0.07958	-0.01707	-0.01182	0.00607
0.02400	-0.00009	0.00226	0.00077	0.00214	0.00000	0.00000	0.02633	-0.10319	-0.07958	-0.01707	-0.01182	0.00607
0.02600	-0.00009	0.00226	0.00077	0.00214	-3.96880	-89.73000	0.02633	-0.10319	-0.07958	-0.01707	-0.01182	0.00607
0.02800	0.00187	0.00089	0.00057	0.00420	-3.87860	-89.82000	0.02633	-0.10319	-0.07958	-0.01707	-0.01182	0.00607
0.03000	0.00010	0.00071	0.00096	0.00159	-3.87860	-89.73000	0.04598	-0.13683	-0.08883	-0.02715	-0.02313	0.00926
0.03200	0.00010	0.00071	0.00096	0.00159	-3.78840	-89.82000	0.04598	-0.13683	-0.08883	-0.02715	-0.02313	0.00926
0.03400	0.00010	0.00071	0.00096	0.00159	-3.69820	-89.82000	0.04598	-0.13683	-0.08883	-0.02715	-0.02313	0.00926
0.03600	0.00010	0.00071	0.00096	0.00159	-3.78840	-89.82000	0.04598	-0.13683	-0.08883	-0.02715	-0.02313	0.00926
0.03800	0.00061	0.00212	0.00032	0.00168	-3.69820	-89.73000	0.10543	-0.11749	-0.11751	-0.01758	-0.03156	0.00391
0.04000	0.00061	0.00212	0.00032	0.00168	-3.69820	-89.73000	0.10543	-0.11749	-0.11751	-0.01758	-0.03156	0.00391
0.04200	0.00061	0.00212	0.00032	0.00168	-3.69820	-89.64000	0.10543	-0.11749	-0.11751	-0.01758	-0.03156	0.00391
0.04400	0.00061	0.00212	0.00032	0.00168	-3.69820	-89.64000	0.10543	-0.11749	-0.11751	-0.01758	-0.03156	0.00391
0.04600	-0.00017	0.00082	0.00046	0.00079	0.00000	0.00000	0.11047	-0.09228	-0.10178	-0.02159	-0.03434	-0.00226
0.04800	-0.00017	0.00082	0.00046	0.00079	-3.69820	-89.82000	0.11047	-0.09228	-0.10178	-0.02159	-0.03434	-0.00226
0.05000	-0.00017	0.00082	0.00046	0.00079	-3.60800	-89.82000	0.11047	-0.09228	-0.10178	-0.02159	-0.03434	-0.00226
0.05200	-0.00017	0.00082	0.00046	0.00079	-3.51780	-89.73000	0.11047	-0.09228	-0.10178	-0.02159	-0.03434	-0.00226
0.05400	0.00099	0.00171	0.00091	0.00225	-3.42760	-89.73000	0.11047	-0.09228	-0.10178	-0.01676	-0.03742	0.00000
0.05600	0.00165	0.00068	0.00075	0.00265	-3.33740	-89.82000	0.14400	-0.05689	-0.09561	-0.01676	-0.03742	0.00000
0.05800	0.00165	0.00068	0.00075	0.00265	-3.42760	-89.91000	0.14400	-0.05689	-0.09561	-0.01676	-0.03742	0.00000
0.06000	0.00165	0.00068	0.00075	0.00265	-3.60800	-89.73000	0.14400	-0.05689	-0.09561	-0.01676	-0.03742	0.00000
0.06200	0.00165	0.00068	0.00075	0.00265	-3.69820	-89.73000	0.14400	-0.05689	-0.09561	-0.01676	-0.03742	0.00000
0.06400	0.00012	0.00165	0.00060	0.00239	-3.69820	-89.73000	0.14400	-0.05689	-0.09561	-0.01676	-0.03742	0.00000
0.06600	-0.00082	0.00223	0.00089	0.00208	-3.69820	-89.73000	0.14328	-0.05196	-0.08220	-0.01851	-0.04102	0.00154
0.06800	-0.00082	0.00223	0.00089	0.00208	0.00000	0.00000	0.14328	-0.05196	-0.08220	-0.01851	-0.04102	0.00154
0.07000	-0.00082	0.00223	0.00089	0.00208	-3.69820	-89.82000	0.14328	-0.05196	-0.08220	-0.01851	-0.04102	0.00154
0.07200	-0.00082	0.00223	0.00089	0.00208	-3.60800	-89.91000	0.14328	-0.05196	-0.08220	-0.01851	-0.04102	0.00154
0.07400	-0.00004	0.00113	0.00085	0.00238	-3.60800	-89.82000	0.10636	-0.07675	-0.08251	-0.01686	-0.02930	-0.00360
0.07600	-0.00004	0.00113	0.00085	0.00238	0.00000	0.00000	0.10636	-0.07675	-0.08251	-0.01686	-0.02930	-0.00360
0.07800	-0.00004	0.00113	0.00085	0.00238	-3.69820	-89.82000	0.10636	-0.07675	-0.08251	-0.01686	-0.02930	-0.00360
0.08000	-0.00004	0.00113	0.00085	0.00238	-3.96880	-89.73000	0.10636	-0.07675	-0.08251	-0.01686	-0.02930	-0.00360
0.08200	-0.00026	0.00217	0.00086	0.00247	-3.87860	-89.73000	0.07334	-0.08467	-0.08143	-0.01398	-0.01953	0.00113
0.08400	-0.00026	0.00217	0.00086	0.00247	-3.96880	-89.91000	0.07334	-0.08467	-0.08143	-0.01398	-0.01953	0.00113
0.08600	-0.00026	0.00217	0.00086	0.00247	-3.87860	-89.82000	0.07334	-0.08467	-0.08143	-0.01398	-0.01953	0.00113
0.08800	-0.00026	0.00217	0.00086	0.00247	0.00000	0.00000	0.07334	-0.08467	-0.08143	-0.01398	-0.01953	0.00113
0.09000	0.00188	0.00052	0.00112	0.00221	0.00000	0.00000	0.01985	-0.11070	-0.06107	-0.01368	-0.00699	-0.00216
0.09200	0.00188	0.00052	0.00112	0.00221	-3.78840	-89.82000	0.01985	-0.11070	-0.06107	-0.01368	-0.00699	-0.00216
0.09400	0.00188	0.00052	0.00112	0.00221	-3.69820	-89.82000	0.01985	-0.11070	-0.06107	-0.01368	-0.00699	-0.00216
0.09600	0.00188	0.00052	0.00112	0.00221	-3.78840	-89.91000	0.01985	-0.11070	-0.06107	-0.01368	-0.00699	-0.00216
0.09800	-0.00027	0.00251	0.00079	0.00226	0.00000	0.00000	-0.00946	-0.07119	-0.01696	-0.00853	-0.00278	0.00051
0.10000	-0.00027	0.00251	0.00079	0.00226	-3.87860	-90.00000	-0.00946	-0.07119	-0.01696	-0.00853	-0.00278	0.00051
0.10200	-0.00027	0.00251	0.00079	0.00226	-3.96880	-89.91000	-0.00946	-0.07119	-0.01696	-0.00853	-0.00278	0.00051
0.10400	-0.00027	0.00251	0.00079	0.00226	-3.87860	-89.82000	-0.00946	-0.07119	-0.01696	-0.00853	-0.00278	0.00051
0.10600	0.00039	0.00089	0.00134	0.00265	-3.87860	-89.73000	-0.02890	-0.03817	-0.03285	-0.00956	0.00319	0.00514
0.10800	0.00039	0.00089	0.00134	0.00265	-3.87860	-89.73000	-0.02890	-0.03817	-0.03285	-0.00956	0.00319	0.00514
0.11000	0.00039	0.00089	0.00134	0.00265	-3.87860	-89.91000	-0.02890	-0.03817	-0.03285	-0.00956	0.00319	0.00514
0.11200	0.00039	0.00089	0.00134	0.00265	-3.87860	-89.91000	-0.02890	-0.03817	-0.03285	-0.00956	0.00319	0.00514
0.11400	0.00032	0.00202	0.00095	0.00233	-3.78840	-90.00000	-0.02890	-0.03817	-0.03285	-0.00956	0.00319	0.00514
0.11600	0.00216	0.00004	0.00067	0.00197	-3.78840	-89.91000	-0.05328	-0.00514	-0.03316	-0.00751	0.01172	0.00442
0.11800	0.00216	0.00004	0.00067	0.00197	-3.78840	-89.82000	-0.05328	-0.00514	-0.03316	-0.00751	0.01172	0.00442
0.12000	0.00216	0.00004	0.00067	0.00197	0.00000	0.00000	-0.05328	-0.00514	-0.03316	-0.00751	0.01172	0.00442
0.12200	0.00216	0.00004	0.00067	0.00197	-3.87860	-89.73000	-0.05328	-0.00514	-0.03316	-0.00751	0.01172	0.00442
0.12400	0.00093	0.00068	0.00082	0.00267	-3.87860	-89.73000	-0.05328	-0.00514	-0.03316	-0.00751	0.01172	0.00442
0.12600	0.00045	0.00304	0.00051	0.00328	-3.96880	-89.73000	-0.06809	0.02788	-0.06230	0.00308	0.01563	0.00710
0.12800	0.00045	0.00304	0.00051	0.00328	-3.96880	-89.82000	-0.06809	0.02788	-0.06230	0.00308	0.01563	0.00710
0.13000	0.00045	0.00304	0.00051	0.00328	-3.96880	-89.73000	-0.06809	0.02788	-0.06230	0.00308	0.01563	0.00710
0.13200	-0.00083	0.00100	0.00104	0.00229	-3.87860	-89.73000	-0.09782	0.02284	-0.05799	0.00165	0.01686	0.00555
0.13400	-0.00083	0.00100	0.00104	0.00229	-3.69820	-89.73000	-0.09782	0.02284	-0.05799	0.00165	0.01686	0.00555
0.13600	-0.00083	0.00100	0.00104	0.00229	-3.69820	-89.64000	-0.09782	0.02284	-0.05799	0.00165	0.01686	0.00555
0.13800	-0.00083	0.00100	0.00104	0.00229	-3.87860	-89.64000	-0.09782	0.02284	-0.05799	0.00165	0.01686	0.00555
0.14000	0.00043	0.00102	0.00108	0.00210	0.00000	0.00000	-0.08949	0.00185	-0.07325	-0.00237	0.02138	0.01101
0.14200	0.00043	0.00102	0.00108	0.00210	0.00000	-89.73000	-0.08949	0.00185	-0.07325	-0.00237	0.02138	0.01101
0.14400	0.00043	0.00102	0.00108	0.00210	-3.96880	-89.73000	-0.08949	0.00185	-0.07325	-0.00237	0.02138	0.01101
0.14600	0.00043	0.00102	0.00108	0.00210	-3.96880	-89.73000	-0.08949	0.00185	-0.07325	-0.00237	0.02138	0.01101
0.14800	0.00113	0.00169	0.00079	0.00245	-3.96880	-89.64000	-0.08949	0.00185	-0.07325	-0.00237	0.02138	0.01101
0.15000	0.00108	0.00029	0.00078	0.00246	-3.87860	-89.73000	-0.08476	-0.02119	-0.06940	0.00031	0.01809	0.00494
0.15200	0.00108	0.00029	0.00078	0.00246	-3.87860	-89.73000	-0.08476	-0.02119	-0.06940	0.00031	0.01809	0.00494
0.15400	0.00108	0.00029	0.00078	0.00246	-3.87860	-89.73000	-0.08476	-0.02119	-0.06940	0.00031	0.01809	0.00494
0.15600	0.00108	0.00029	0.00078	0.00246	-3.87860	-89.73000	-0.08476	-0.02119	-0.06940	0.00031	0.01809	0.00494
0.15800	0.00026	0.00100	0.00057	0.00147	-3.87860	-89.73000	-0.03878	-0.05638	-0.05999	-0.00432	0.00987	-0.00154
0.16000	-0.00028	0.00196	0.00076	0.00148	-3.87860	-89.82000	-0.03878	-0.05638	-0.05999	-0.00432	0.00987	-0.00154
0.16200	-0.00028	0.00196	0.00076	0.00148	-3.87860	-89.82000	-0.03878	-0.05638	-0.05999	-0.00432	0.00987	-0.00154
0.16400	-0.00028	0.00196	0.00076	0.00148	0.00000	0.00000	-0.03878	-0.05638	-0.05999	-0.00432	0.00987	-0.00154
0.16600	-0.00028	0.00196	0.00076	0.00148	-3.87860	-89.82000	-0.03878	-0.05638	-0.05999	-0.00432	0.00987	-0.00154
0.16800	-0.00009	0.00060	0.00107	0.00196	-3.96880	-89.82000	-0.03878	-0.05638	-0.05999	-0.00432	0.00987	-0.00154
0.17000	-0.00009	0.00060	0.00107	0.00196	-3.87860	-89.91000	-0.00062	-0.05535	-0.04380	-0.00257	-0.00586	-0.00411
0.17200	0.00055	0.00132	0.00066	0.00212	-3.78840	-89.82000	-0.00062	-0.05535	-0.04380	-0.00257	-0.00586	-0.00411
0.17400	0.00055	0.00132	0.00066	0.00212	-3.96880	-89.91000	0.04155	-0.02850	-0.02313	-0.00175	-0.01480	-0.00442
0.17600	0.00055	0.00132	0.00066	0.00212	-3.96880	-89.91000	0.04155	-0.02850	-0.02313	-0.00175	-0.01480	-0.00442
0.17800	0.00056	0.00167	0.00060	0.00294	-3.87860	-89.73000	0.04155	-0.02850	-0.02313	-0.00175	-0.01480	-0.00442
0.18000	0.00056	0.00167	0.00060	0.00294	-3.87860	-89.73000	0.04155	-0.02850	-0.02313	-0.00175	-0.01480	-0.00442
0.18200	0.00056	0.00167	0.00060	0.00294	-3.87860	-89.73000	0.04155	-0.02850	-0.02313	-0.00175	-0.01480	-0.00442
0.18400	0.00085	0.00020	0.00059	0.00188	-3.78840	-89.73000	0.08794	-0.01214	-0.02421	-0.00093	-0.02262	-0.00195
0.18600	0.00085	0.00020	0.00059	0.00188	0.00000	0.00000	0.08794	-0.01214	-0.02421	-0.00093	-0.02262	-0.00195
0.18800	0.00085	0.00020	0.00059	0.00188	-3.69820	-89.82000	0.08794	-0.01214	-0.02421	-0.00093	-0.02262	-0.00195
0.19000	0.00085	0.00020	0.00059	0.00188	-3.69820	-89.73000	0.08794	-0.01214	-0.02421	-0.00093	-0.02262	-0.00195
0.19200	0.00018	0.00239	0.00059	0.00150	-3.60800	-89.82000	0.11551	0.00031	0.00154	-0.00370	-0.03753	-0.00226
0.19400	0.00018	0.00239	0.00059	0.00150	-3.60800	-89.73000	0.11551	0.00031	0.00154	-0.00370	-0.03753	-0.00226
0.19600	0.00018	0.00239	0.00059	0.00150	-3.51780	-89.73000	0.11551	0.00031	0.00154	-0.00370	-0.03753	-0.00226
0.19800	0.00018	0.00239	0.00059	0.00150	-3.60800	-89.82000	0.11551	0.00031	0.00154	-0.00370	-0.03753	-0.00226
0.20000	-0.00001	0.00057	0.00089	0.00259	0.00000	0.00000	0.14616	-0.00689	-0.03115	0.00154	-0.04277	0.00247
0.20200	-0.00001	0.00057	0.00089	0.00259	-3.69820	-89.91000	0.14616	-0.00689	-0.03115	0.00154	-0.04277	0.00247
0.20400	-0.00001	0.00057	0.00089	0.00259	-3.60800	-89.73000	0.14616	-0.00689	-0.03115	0.00154	-0.04277	0.00247
0.20600	-0.00001	0.00057	0.00089	0.00259	-3.60800	-89.73000	0.14616	-0.00689	-0.03115	0.00154	-0.04277	0.00247
0.20800	-0.00016	0.00233	0.00069	0.00125	-3.60800	-89.64000	0.11592	-0.05525	-0.03115	-0.00298	-0.04123	0.00360
0.21000	-0.00016	0.00233	0.00069	0.00125	-3.60800	-89.64000	0.11592	-0.05525	-0.03115	-0.00298	-0.04123	0.00360
0.21200	-0.00016	0.00233	0.00069	0.00125	-3.60800	-89.64000	0.11592	-0.05525	-0.03115	-0.00298	-0.04123	0.00360
0.21400	-0.00016	0.00233	0.00069	0.00125	-3.69820	-89.82000	0.11592	-0.05525	-0.03115	-0.00298	-0.04123	0.00360
0.21600	0.00141	0.00055	0.00080	0.00197	-3.69820	-89.82000	0.10492	-0.05936	-0.02514	-0.01213	-0.02910	0.00082
0.21800	0.00048	0.00137	0.00063	0.00251	-3.78840	-89.91000	0.10492	-0.05936	-0.02514	-0.01213	-0.02910	0.00082
0.22000	0.00048	0.00137	0.00063	0.00251	0.00000	0.00000	0.10492	-0.05936	-0.02514	-0.01213	-0.02910	0.00082
0.22200	0.00048	0.00137	0.00063	0.00251	0.00000	0.00000	0.10492	-0.05936	-0.02514	-0.01213	-0.02910	0.00082
0.22400	0.00048	0.00137	0.00063	0.00251	-3.78840	-89.64000	0.10492	-0.05936	-0.02514	-0.01213	-0.02910	0.00082
0.22600	0.00006	0.00140	0.00050	0.00296	-3.87860	-89.73000	0.10492	-0.05936	-0.02514	-0.01213	-0.02910	0.00082
0.22800	-0.00043	0.00069	0.00113	0.00319	-3.87860	-89.64000	0.07581	-0.07675	-0.01403	-0.01296	-0.02714	0.00134
0.23000	-0.00043	0.00069	0.00113	0.00319	-3.78840	-89.64000	0.07581	-0.07675	-0.01403	-0.01296	-0.02714	0.00134
0.23200	-0.00043	0.00069	0.00113	0.00319	-3.78840	-89.73000	0.07581	-0.07675	-0.01403	-0.01296	-0.02714	0.00134
0.23400	-0.00043	0.00069	0.00113	0.00319	-3.78840	-89.73000	0.07581	-0.07675	-0.01403	-0.01296	-0.02714	0.00134
0.23600	0.00026	0.00202	0.00079	0.00204	-3.78840	-89.73000	0.05616	-0.03477	0.00185	-0.00977	-0.01727	0.00319
0.23800	0.00026	0.00202	0.00079	0.00204	-3.87860	-89.73000	0.05616	-0.03477	0.00185	-0.00977	-0.01727	0.00319
0.24000	0.00026	0.00202	0.00079	0.00204	-3.96880	-89.73000	0.05616	-0.03477	0.00185	-0.00977	-0.01727	0.00319
0.24200	0.00026	0.00202	0.00079	0.00204	-3.96880	-89.73000	0.05616	-0.03477	0.00185	-0.00977	-0.01727	0.00319
0.24400	0.00119	0.00078	0.00071	0.00156	0.00000	0.00000	0.05616	-0.03477	0.00185	-0.00977	-0.01727	0.00319
0.24600	0.00050	0.00069	0.00105	0.00152	-3.78840	-89.82000	0.04577	-0.00926	-0.00925	-0.00699	-0.00894	0.00000
0.24800	0.00050	0.00069	0.00105	0.00152	-3.78840	-89.82000	0.04577	-0.00926	-0.00925	-0.00699	-0.00894	0.00000
0.25000	0.00050	0.00069	0.00105	0.00152	-3.78840	-89.73000	0.04577	-0.00926	-0.00925	-0.00699	-0.00894	0.00000
0.25200	0.00050	0.00069	0.00105	0.00152	-3.78840	-89.73000	0.04577	-0.00926	-0.00925	-0.00699	-0.00894	0.00000
0.25400	0.00040	0.00228	0.00045	0.00191	-3.78840	-89.73000	0.04577	-0.00926	-0.00925	-0.00699	-0.00894	0.00000
0.25600	0.00073	0.00161	0.00089	0.00231	-3.96880	-89.73000	0.00648	-0.02274	-0.02452	-0.00689	-0.00380	0.00216
0.25800	0.00073	0.00161	0.00089	0.00231	-3.87860	-89.73000	0.00648	-0.02274	-0.02452	-0.00689	-0.00380	0.00216
0.26000	0.00073	0.00161	0.00089	0.00231	-3.87860	-89.73000	0.00648	-0.02274	-0.02452	-0.00689	-0.00380	0.00216
0.26200	0.00073	0.00161	0.00089	0.00231	-3.87860	-89.64000	0.00648	-0.02274	-0.02452	-0.00689	-0.00380	0.00216
0.26400	-0.00001	0.00054	0.00077	0.00243	-3.87860	-89.64000	0.00648	-0.02274	-0.02452	-0.00689	-0.00380	0.00216
0.26600	0.00028	0.00413	0.00044	0.00242	0.00000	0.00000	-0.01687	-0.03282	-0.01635	-0.00483	0.00658	0.00195
0.26800	0.00028	0.00413	0.00044	0.00242	-3.96880	-89.82000	-0.01687	-0.03282	-0.01635	-0.00483	0.00658	0.00195
0.27000	0.00028	0.00413	0.00044	0.00242	-3.96880	-89.73000	-0.01687	-0.03282	-0.01635	-0.00483	0.00658	0.00195
0.27200	0.00028	0.00413	0.00044	0.00242	-3.87860	-89.91000	-0.01687	-0.03282	-0.01635	-0.00483	0.00658	0.00195
0.27400	0.00155	0.00144	0.00088	0.00265	-3.78840	-89.91000	-0.03744	-0.05916	-0.04287	-0.01008	0.00586	-0.00309
0.27600	0.00155	0.00144	0.00088	0.00265	-3.78840	-89.82000	-0.03744	-0.05916	-0.04287	-0.01008	0.00586	-0.00309
0.27800	0.00155	0.00144	0.00088	0.00265	-3.87860	-89.73000	-0.03744	-0.05916	-0.04287	-0.01008	0.00586	-0.00309
0.28000	0.00155	0.00144	0.00088	0.00265	-4.05900	-89.82000	-0.03744	-0.05916	-0.04287	-0.01008	0.00586	-0.00309
0.28200	0.00029	0.00112	0.00103	0.00206	-4.05900	-89.82000	-0.02602	-0.06049	-0.06631	-0.01018	0.00699	0.00206
0.28400	0.00029	0.00112	0.00103	0.00206	-3.87860	-89.82000	-0.02602	-0.06049	-0.06631	-0.01018	0.00699	0.00206
0.28600	0.00029	0.00112	0.00103	0.00206	-3.87860	-89.91000	-0.02602	-0.06049	-0.06631	-0.01018	0.00699	0.00206
0.28800	0.00029	0.00112	0.00103	0.00206	0.00000	0.00000	-0.02602	-0.06049	-0.06631	-0.01018	0.00699	0.00206
0.29000	0.00022	0.00139	0.00096	0.00115	-3.87860	-89.82000	-0.04155	-0.07037	-0.07109	-0.00812	0.00730	-0.00278
0.29200	0.00022	0.00139	0.00096	0.00115	-3.96880	-89.82000	-0.04155	-0.07037	-0.07109	-0.00812	0.00730	-0.00278
0.29400	0.00022	0.00139	0.00096	0.00115	-3.87860	-89.91000	-0.04155	-0.07037	-0.07109	-0.00812	0.00730	-0.00278
0.29600	0.00022	0.00139	0.00096	0.00115	-3.78840	-89.82000	-0.04155	-0.07037	-0.07109	-0.00812	0.00730	-0.00278
0.29800	0.00012	0.00148	0.00068	0.00125	-3.78840	-89.82000	-0.01358	-0.04794	-0.08266	-0.00740	0.00617	-0.00103
0.30000	0.00012	0.00148	0.00068	0.00125	-3.78840	-89.82000	-0.01358	-0.04794	-0.08266	-0.00740	0.00617	-0.00103
0.30200	0.00012	0.00148	0.00068	0.00125	0.00000	0.00000	-0.01358	-0.04794	-0.08266	-0.00740	0.00617	-0.00103
0.30400	0.00012	0.00148	0.00068	0.00125	-3.87860	-89.73000	-0.01358	-0.04794	-0.08266	-0.00740	0.00617	-0.00103
0.30600	0.00126	0.00073	0.00095	0.00252	-3.96880	-89.73000	-0.01358	-0.04794	-0.08266	-0.00740	0.00617	-0.00103
0.30800	0.00065	0.00091	0.00084	0.00337	-3.78840	-89.73000	0.00669	-0.03508	-0.07973	-0.00278	-0.00360	0.00237
0.31000	0.00065	0.00091	0.00084	0.00337	-3.69820	-89.73000	0.00669	-0.03508	-0.07973	-0.00278	-0.00360	0.00237
0.31200	0.00065	0.00091	0.00084	0.00337	-3.69820	-89.82000	0.00669	-0.03508	-0.07973	-0.00278	-0.00360	0.00237
0.31400	0.00065	0.00091	0.00084	0.00337	-3.78840	-89.82000	0.00669	-0.03508	-0.07973	-0.00278	-0.00360	0.00237
0.31600	0.00005	0.00172	0.00077	0.00279	-3.87860	-89.91000	0.03230	-0.00741	-0.09592	-0.00010	-0.01162	0.00751
0.31800	0.00005	0.00172	0.00077	0.00279	-3.87860	-89.91000	0.03230	-0.00741	-0.09592	-0.00010	-0.01162	0.00751
0.32000	0.00005	0.00172	0.00077	0.00279	-3.78840	-89.91000	0.03230	-0.00741	-0.09592	-0.00010	-0.01162	0.00751
0.32200	0.00005	0.00172	0.00077	0.00279	-3.87860	-89.73000	0.03230	-0.00741	-0.09592	-0.00010	-0.01162	0.00751
0.32400	0.00021	0.00113	0.00090	0.00189	0.00000	0.00000	0.04238	-0.00823	-0.09808	-0.00093	-0.01624	0.00771
0.32600	0.00021	0.00113	0.00090	0.00189	-3.96880	-89.73000	0.04238	-0.00823	-0.09808	-0.00093	-0.01624	0.00771
0.32800	0.00021	0.00113	0.00090	0.00189	-3.96880	-89.64000	0.04238	-0.00823	-0.09808	-0.00093	-0.01624	0.00771
0.33000	0.00021	0.00113	0.00090	0.00189	-4.05900	-89.73000	0.04238	-0.00823	-0.09808	-0.00093	-0.01624	0.00771
0.33200	-0.00035	0.00221	0.00074	0.00097	-3.87860	-89.64000	0.02921	-0.01831	-0.09423	-0.00267	-0.01203	0.00638
0.33400	-0.00035	0.00221	0.00074	0.00097	-3.87860	-89.64000	0.02921	-0.01831	-0.09423	-0.00267	-0.01203	0.00638
0.33600	-0.00035	0.00221	0.00074	0.00097	-3.96880	-89.64000	0.02921	-0.01831	-0.09423	-0.00267	-0.01203	0.00638
0.33800	-0.00035	0.00221	0.00074	0.00097	0.00000	0.00000	0.02921	-0.01831	-0.09423	-0.00267	-0.01203	0.00638
0.34000	0.00204	0.00043	0.00094	0.00154	-3.87860	-89.64000	0.03487	-0.02809	-0.09947	-0.00833	-0.00792	0.00288
0.34200	0.00204	0.00043	0.00094	0.00154	-3.87860	-89.73000	0.03487	-0.02809	-0.09947	-0.00833	-0.00792	0.00288
0.34400	0.00204	0.00043	0.00094	0.00154	-3.87860	-89.73000	0.03487	-0.02809	-0.09947	-0.00833	-0.00792	0.00288
0.34600	0.00204	0.00043	0.00094	0.00154	0.00000	0.00000	0.03487	-0.02809	-0.09947	-0.00833	-0.00792	0.00288
0.34800	0.00061	0.00210	0.00023	0.00207	-3.96880	-89.73000	0.02530	-0.02922	-0.07603	-0.00524	-0.01059	0.00669
0.35000	0.00007	0.00093	0.00086	0.00220	-3.96880	-89.82000	0.02530	-0.02922	-0.07603	-0.00524	-0.01059	0.00669
0.35200	0.00007	0.00093	0.00086	0.00220	-3.96880	-89.73000	0.02530	-0.02922	-0.07603	-0.00524	-0.01059	0.00669
0.35400	0.00007	0.00093	0.00086	0.00220	-3.87860	-89.82000	0.02530	-0.02922	-0.07603	-0.00524	-0.01059	0.00669
0.35600	0.00007	0.00093	0.00086	0.00220	-3.78840	-89.82000	0.02530	-0.02922	-0.07603	-0.00524	-0.01059	0.00669
0.35800	0.00069	0.00065	0.00087	0.00312	-3.69820	-89.82000	0.05091	-0.01111	-0.05583	0.00093	-0.01193	-0.00093
0.36000	0.00069	0.00065	0.00087	0.00312	0.00000	0.00000	0.05091	-0.01111	-0.05583	0.00093	-0.01193	-0.00093
0.36200	0.00069	0.00065	0.00087	0.00312	-3.78840	-89.64000	0.05091	-0.01111	-0.05583	0.00093	-0.01193	-0.00093
0.36400	0.00069	0.00065	0.00087	0.00312	-3.78840	-89.64000	0.05091	-0.01111	-0.05583	0.00093	-0.01193	-0.00093
0.36600	0.00051	0.00216	0.00046	0.00270	-3.78840	-89.73000	0.05925	-0.00113	-0.06570	-0.00010	-0.01686	0.00021
0.36800	0.00051	0.00216	0.00046	0.00270	-3.69820	-89.73000	0.05925	-0.00113	-0.06570	-0.00010	-0.01686	0.00021
0.37000	0.00051	0.00216	0.00046	0.00270	-3.87860	-89.82000	0.05925	-0.00113	-0.06570	-0.00010	-0.01686	0.00021
0.37200	0.00051	0.00216	0.00046	0.00270	-3.78840	-89.73000	0.05925	-0.00113	-0.06570	-0.00010	-0.01686	0.00021
0.37400	0.00068	0.00076	0.00091	0.00226	0.00000	0.00000	0.05585	0.01317	-0.05074	-0.00031	-0.02128	0.00093
0.37600	0.00068	0.00076	0.00091	0.00226	-3.69820	-89.73000	0.05585	0.01317	-0.05074	-0.00031	-0.02128	0.00093
0.37800	0.00068	0.00076	0.00091	0.00226	-3.78840	-89.73000	0.05585	0.01317	-0.05074	-0.00031	-0.02128	0.00093
0.38000	0.00068	0.00076	0.00091	0.00226	-3.78840	-89.82000	0.05585	0.01317	-0.05074	-0.00031	-0.02128	0.00093
0.38200	0.00024	0.00166	0.00075	0.00174	0.00000	0.00000	0.06336	0.00998	-0.04226	-0.00329	-0.01758	0.00432
0.38400	0.00024	0.00166	0.00075	0.00174	-3.78840	-89.91000	0.06336	0.00998	-0.04226	-0.00329	-0.01758	0.00432
0.38600	0.00024	0.00166	0.00075	0.00174	-3.87860	-89.91000	0.06336	0.00998	-0.04226	-0.00329	-0.01758	0.00432
0.38800	0.00024	0.00166	0.00075	0.00174	-3.87860	-90.09000	0.06336	0.00998	-0.04226	-0.00329	-0.01758	0.00432
0.39000	-0.00034	0.00099	0.00086	0.00261	-3.87860	-89.91000	0.01512	-0.01903	-0.02483	-0.00072	-0.01727	0.00298
0.39200	-0.00034	0.00099	0.00086	0.00261	-3.69820	-89.91000	0.01512	-0.01903	-0.02483	-0.00072	-0.01727	0.00298
0.39400	-0.00034	0.00099	0.00086	0.00261	-3.60800	-89.82000	0.01512	-0.01903	-0.02483	-0.00072	-0.01727	0.00298
0.39600	-0.00034	0.00099	0.00086	0.00261	0.00000	0.00000	0.01512	-0.01903	-0.02483	-0.00072	-0.01727	0.00298
0.39800	0.00090	0.00187	0.00031	0.00190	-3.60800	-89.73000	0.02386	-0.02840	-0.03424	-0.00082	-0.00607	0.00175
0.40000	0.00032	0.00030	0.00106	0.00164	-3.60800	-89.64000	0.02386	-0.02840	-0.03424	-0.00082	-0.00607	0.00175
0.40200	0.00032	0.00030	0.00106	0.00164	-3.69820	-89.64000	0.02386	-0.02840	-0.03424	-0.00082	-0.00607	0.00175
0.40400	0.00032	0.00030	0.00106	0.00164	-3.78840	-89.64000	0.02386	-0.02840	-0.03424	-0.00082	-0.00607	0.00175
0.40600	0.00032	0.00030	0.00106	0.00164	-3.78840	-89.64000	0.02386	-0.02840	-0.03424	-0.00082	-0.00607	0.00175
0.40800	0.00020	0.00173	0.00069	0.00248	-3.87860	-89.64000	-0.00062	-0.07675	-0.02174	-0.00473	-0.01131	-0.00051
0.41000	0.00020	0.00173	0.00069	0.00248	-3.87860	-89.64000	-0.00062	-0.07675	-0.02174	-0.00473	-0.01131	-0.00051
0.41200	0.00020	0.00173	0.00069	0.00248	-3.78840	-89.73000	-0.00062	-0.07675	-0.02174	-0.00473	-0.01131	-0.00051
0.41400	0.00020	0.00173	0.00069	0.00248	-3.78840	-89.73000	-0.00062	-0.07675	-0.02174	-0.00473	-0.01131	-0.00051
0.41600	0.00021	0.00085	0.00067	0.00271	-3.78840	-89.73000	-0.00638	-0.07901	-0.03084	-0.00134	-0.00864	0.00113
0.41800	0.00021	0.00085	0.00067	0.00271	0.00000	0.00000	-0.00638	-0.07901	-0.03084	-0.00134	-0.00864	0.00113
0.42000	0.00021	0.00085	0.00067	0.00271	-3.78840	-89.82000	-0.00638	-0.07901	-0.03084	-0.00134	-0.00864	0.00113
0.42200	0.00021	0.00085	0.00067	0.00271	-3.78840	-89.82000	-0.00638	-0.07901	-0.03084	-0.00134	-0.00864	0.00113
0.42400	-0.00017	0.00167	0.00068	0.00197	-3.87860	-89.82000	-0.00278	-0.04496	-0.02174	-0.00062	-0.00288	0.00062
0.42600	-0.00017	0.00167	0.00068	0.00197	-3.87860	-89.82000	-0.00278	-0.04496	-0.02174	-0.00062	-0.00288	0.00062
0.42800	-0.00017	0.00167	0.00068	0.00197	-3.78840	-89.73000	-0.00278	-0.04496	-0.02174	-0.00062	-0.00288	0.00062
0.43000	-0.00017	0.00167	0.00068	0.00197	-3.78840	-89.73000	-0.00278	-0.04496	-0.02174	-0.00062	-0.00288	0.00062
0.43200	0.00152	0.00116	0.00080	0.00121	0.00000	0.00000	-0.01903	-0.02572	0.00864	0.00134	-0.00103	0.00360
0.43400	0.00152	0.00116	0.00080	0.00121	-3.78840	-89.82000	-0.01903	-0.02572	0.00864	0.00134	-0.00103	0.00360
0.43600	0.00152	0.00116	0.00080	0.00121	-3.78840	-89.82000	-0.01903	-0.02572	0.00864	0.00134	-0.00103	0.00360
0.43800	0.00152	0.00116	0.00080	0.00121	-3.69820	-89.91000	-0.01903	-0.02572	0.00864	0.00134	-0.00103	0.00360
0.44000	-0.00006	0.00183	0.00069	0.00188	-3.87860	-89.91000	0.01070	0.01584	0.00416	0.00699	-0.00936	0.00257
0.44200	-0.00006	0.00183	0.00069	0.00188	-3.96880	-89.82000	0.01070	0.01584	0.00416	0.00699	-0.00936	0.00257
0.44400	-0.00006	0.00183	0.00069	0.00188	-4.05900	-89.82000	0.01070	0.01584	0.00416	0.00699	-0.00936	0.00257
0.44600	-0.00006	0.00183	0.00069	0.00188	-3.87860	-89.82000	0.01070	0.01584	0.00416	0.00699	-0.00936	0.00257
0.44800	0.00024	0.00119	0.00058	0.00233	-3.78840	-89.73000	0.01306	0.01770	-0.00170	0.00884	-0.00905	-0.00041
0.45000	0.00024	0.00119	0.00058	0.00233	-3.78840	-89.73000	0.01306	0.01770	-0.00170	0.00884	-0.00905	-0.00041
0.45200	0.00024	0.00119	0.00058	0.00233	-3.78840	-89.73000	0.01306	0.01770	-0.00170	0.00884	-0.00905	-0.00041
0.45400	0.00024	0.00119	0.00058	0.00233	0.00000	0.00000	0.01306	0.01770	-0.00170	0.00884	-0.00905	-0.00041
0.45600	-0.00028	0.00196	0.00065	0.00270	-3.87860	-89.73000	0.03240	0.02356	-0.03038	0.00668	-0.01110	0.00391
0.45800	-0.00028	0.00196	0.00065	0.00270	-3.87860	-89.73000	0.03240	0.02356	-0.03038	0.00668	-0.01110	0.00391
0.46000	-0.00028	0.00196	0.00065	0.00270	-3.87860	-89.73000	0.03240	0.02356	-0.03038	0.00668	-0.01110	0.00391
0.46200	-0.00028	0.00196	0.00065	0.00270	-3.87860	-89.73000	0.03240	0.02356	-0.03038	0.00668	-0.01110	0.00391
0.46400	0.00168	0.00102	0.00103	0.00234	-3.87860	-89.73000	0.02777	0.02942	-0.04935	0.00257	-0.01028	0.00206
0.46600	0.00168	0.00102	0.00103	0.00234	-3.87860	-89.82000	0.02777	0.02942	-0.04935	0.00257	-0.01028	0.00206
0.46800	0.00168	0.00102	0.00103	0.00234	-3.87860	-89.82000	0.02777	0.02942	-0.04935	0.00257	-0.01028	0.00206
0.47000	0.00168	0.00102	0.00103	0.00234	-3.96880	-89.82000	0.02777	0.02942	-0.04935	0.00257	-0.01028	0.00206
0.47200	-0.00028	0.00195	0.00039	0.00236	-3.87860	-89.73000	0.00031	0.01409	-0.04935	0.00566	-0.00894	0.00648
0.47400	-0.00028	0.00195	0.00039	0.00236	-3.78840	-89.64000	0.00031	0.01409	-0.04935	0.00566	-0.00894	0.00648
0.47600	-0.00028	0.00195	0.00039	0.00236	0.00000	0.00000	0.00031	0.01409	-0.04935	0.00566	-0.00894	0.00648
0.47800	-0.00028	0.00195	0.00039	0.00236	-3.78840	-89.73000	0.00031	0.01409	-0.04935	0.00566	-0.00894	0.00648
0.48000	0.00004	0.00072	0.00056	0.00291	-3.78840	-89.64000	0.00525	0.00874	-0.06030	0.01255	-0.00792	0.00072
0.48200	-0.00035	0.00101	0.00066	0.00260	-3.87860	-89.64000	0.00525	0.00874	-0.06030	0.01255	-0.00792	0.00072
0.48400	-0.00035	0.00101	0.00066	0.00260	-3.78840	-89.73000	0.00525	0.00874	-0.06030	0.01255	-0.00792	0.00072
0.48600	-0.00035	0.00101	0.00066	0.00260	-3.78840	-89.82000	0.00525	0.00874	-0.06030	0.01255	-0.00792	0.00072
0.48800	-0.00035	0.00101	0.00066	0.00260	-3.78840	-89.82000	0.00525	0.00874	-0.06030	0.01255	-0.00792	0.00072
0.49000	0.00039	0.00204	0.00071	0.00157	-3.69820	-89.82000	-0.03837	-0.02078	-0.06323	0.00432	0.00185	0.00000
0.49200	0.00039	0.00204	0.00071	0.00157	-3.69820	-89.82000	-0.03837	-0.02078	-0.06323	0.00432	0.00185	0.00000
0.49400	0.00039	0.00204	0.00071	0.00157	-3.78840	-89.82000	-0.03837	-0.02078	-0.06323	0.00432	0.00185	0.00000
0.49600	0.00039	0.00204	0.00071	0.00157	0.00000	0.00000	-0.03837	-0.02078	-0.06323	0.00432	0.00185	0.00000
0.49800	0.00106	0.00085	0.00089	0.00216	0.00000	0.00000	-0.04454	-0.02315	-0.08497	0.00720	0.00802	0.00062
0.50000	0.00106	0.00085	0.00089	0.00216	-3.69820	-89.91000	-0.04454	-0.02315	-0.08497	0.00720	0.00802	0.00062
0.50200	0.00106	0.00085	0.00089	0.00216	-3.60800	-89.91000	-0.04454	-0.02315	-0.08497	0.00720	0.00802	0.00062
0.50400	0.00106	0.00085	0.00089	0.00216	-3.60800	-89.91000	-0.04454	-0.02315	-0.08497	0.00720	0.00802	0.00062
0.50600	0.00018	0.00213	0.00037	0.00307	-3.78840	-89.82000	-0.05194	-0.02695	-0.05829	-0.00082	0.00936	-0.00154
0.50800	0.00018	0.00213	0.00037	0.00307	-3.78840	-89.73000	-0.05194	-0.02695	-0.05829	-0.00082	0.00936	-0.00154
0.51000	0.00018	0.00213	0.00037	0.00307	-3.87860	-89.73000	-0.05194	-0.02695	-0.05829	-0.00082	0.00936	-0.00154
0.51200	0.00018	0.00213	0.00037	0.00307	0.00000	0.00000	-0.05194	-0.02695	-0.05829	-0.00082	0.00936	-0.00154
0.51400	-0.00001	0.00059	0.00091	0.00351	-3.78840	-89.73000	-0.05194	-0.02695	-0.05829	-0.00082	0.00936	-0.00154
0.51600	-0.00030	0.00262	0.00070	0.00172	-3.78840	-89.73000	-0.04793	-0.01430	-0.03979	0.00545	0.00771	0.00082
0.51800	-0.00030	0.00262	0.00070	0.00172	-3.87860	-89.73000	-0.04793	-0.01430	-0.03979	0.00545	0.00771	0.00082
0.52000	-0.00030	0.00262	0.00070	0.00172	0.00000	0.00000	-0.04793	-0.01430	-0.03979	0.00545	0.00771	0.00082
0.52200	-0.00030	0.00262	0.00070	0.00172	-3.87860	-89.73000	-0.04793	-0.01430	-0.03979	0.00545	0.00771	0.00082
0.52400	0.00144	0.00135	0.00078	0.00124	-3.87860	-89.82000	0.00885	0.01409	-0.04148	0.00668	0.00062	0.00165
0.52600	0.00144	0.00135	0.00078	0.00124	-3.78840	-89.73000	0.00885	0.01409	-0.04148	0.00668	0.00062	0.00165
0.52800	0.00144	0.00135	0.00078	0.00124	-3.87860	-89.73000	0.00885	0.01409	-0.04148	0.00668	0.00062	0.00165
0.53000	0.00144	0.00135	0.00078	0.00124	-3.87860	-89.73000	0.00885	0.01409	-0.04148	0.00668	0.00062	0.00165
0.53200	0.00032	0.00118	0.00078	0.00215	-3.87860	-89.73000	0.00885	0.01409	-0.04148	0.00668	0.00062	0.00165
0.53400	0.00050	0.00213	0.00041	0.00140	-3.78840	-89.73000	0.03415	-0.01379	-0.04750	-0.00411	-0.01121	0.00021
0.53600	0.00050	0.00213	0.00041	0.00140	-3.78840	-89.82000	0.03415	-0.01379	-0.04750	-0.00411	-0.01121	0.00021
0.53800	0.00050	0.00213	0.00041	0.00140	-3.78840	-89.82000	0.03415	-0.01379	-0.04750	-0.00411	-0.01121	0.00021
0.54000	0.00050	0.00213	0.00041	0.00140	-3.69820	-89.73000	0.03415	-0.01379	-0.04750	-0.00411	-0.01121	0.00021
0.54200	0.00035	0.00105	0.00039	0.00130	-3.69820	-89.91000	0.09298	-0.01749	-0.06446	0.00123	-0.02365	0.00154
0.54400	0.00035	0.00105	0.00039	0.00130	-3.69820	-89.82000	0.09298	-0.01749	-0.06446	0.00123	-0.02365	0.00154
0.54600	0.00035	0.00105	0.00039	0.00130	-3.69820	-89.73000	0.09298	-0.01749	-0.06446	0.00123	-0.02365	0.00154
0.54800	0.00035	0.00105	0.00039	0.00130	-3.78840	-89.64000	0.09298	-0.01749	-0.06446	0.00123	-0.02365	0.00154
0.55000	-0.00035	0.00156	0.00069	0.00244	-3.78840	-89.73000	0.09298	-0.01749	-0.06446	0.00123	-0.02365	0.00154
0.55200	0.00201	0.00126	0.00072	0.00278	-3.78840	-89.64000	0.08609	-0.04486	-0.05475	-0.00751	-0.02519	0.00051
0.55400	0.00201	0.00126	0.00072	0.00278	-3.69820	-89.73000	0.08609	-0.04486	-0.05475	-0.00751	-0.02519	0.00051
0.55600	0.00201	0.00126	0.00072	0.00278	0.00000	0.00000	0.08609	-0.04486	-0.05475	-0.00751	-0.02519	0.00051
0.55800	0.00201	0.00126	0.00072	0.00278	-3.69820	-89.73000	0.08609	-0.04486	-0.05475	-0.00751	-0.02519	0.00051
0.56000	0.00140	0.00074	0.00091	0.00305	-3.69820	-89.82000	0.08609	-0.04486	-0.05475	-0.00751	-0.02519	0.00051
0.56200	-0.00028	0.00206	0.00060	0.00325	-3.69820	-89.82000	0.08229	-0.02325	-0.03809	-0.00463	-0.02365	0.00031
0.56400	-0.00028	0.00206	0.00060	0.00325	-3.60800	-89.82000	0.08229	-0.02325	-0.03809	-0.00463	-0.02365	0.00031
0.56600	-0.00028	0.00206	0.00060	0.00325	-3.78840	-89.73000	0.08229	-0.02325	-0.03809	-0.00463	-0.02365	0.00031
0.56800	-0.00028	0.00206	0.00060	0.00325	-3.78840	-89.73000	0.08229	-0.02325	-0.03809	-0.00463	-0.02365	0.00031
0.57000	-0.00004	0.00163	0.00095	0.00279	-3.69820	-89.73000	0.05451	-0.02932	-0.03886	-0.00535	-0.01367	0.00350
0.57200	-0.00027	0.00061	0.00041	0.00208	-3.69820	-89.73000	0.05451	-0.02932	-0.03886	-0.00535	-0.01367	0.00350
0.57400	-0.00027	0.00061	0.00041	0.00208	-3.60800	-89.82000	0.05451	-0.02932	-0.03886	-0.00535	-0.01367	0.00350
0.57600	-0.00027	0.00061	0.00041	0.00208	-3.60800	-89.82000	0.05451	-0.02932	-0.03886	-0.00535	-0.01367	0.00350
0.57800	-0.00027	0.00061	0.00041	0.00208	0.00000	0.00000	0.05451	-0.02932	-0.03886	-0.00535	-0.01367	0.00350
0.58000	-0.00004	0.00179	0.00058	0.00178	-3.69820	-89.82000	0.05451	-0.02932	-0.03886	-0.00535	-0.01367	0.00350
0.58200	-0.00015	0.00224	0.00060	0.00127	-3.69820	-89.73000	0.03744	-0.02829	-0.04734	-0.00761	-0.01100	0.00082
0.58400	-0.00015	0.00224	0.00060	0.00127	-3.69820	-89.82000	0.03744	-0.02829	-0.04734	-0.00761	-0.01100	0.00082
0.58600	-0.00015	0.00224	0.00060	0.00127	-3.69820	-89.82000	0.03744	-0.02829	-0.04734	-0.00761	-0.01100	0.00082
0.58800	-0.00015	0.00224	0.00060	0.00127	-3.69820	-89.82000	0.03744	-0.02829	-0.04734	-0.00761	-0.01100	0.00082
0.59000	0.00228	0.00083	0.00053	0.00191	-3.78840	-89.82000	0.00854	-0.04979	-0.05598	-0.00535	-0.00473	0.00175
0.59200	0.00228	0.00083	0.00053	0.00191	0.00000	0.00000	0.00854	-0.04979	-0.05598	-0.00535	-0.00473	0.00175
0.59400	0.00228	0.00083	0.00053	0.00191	-3.78840	-89.82000	0.00854	-0.04979	-0.05598	-0.00535	-0.00473	0.00175
0.59600	0.00228	0.00083	0.00053	0.00191	-3.87860	-89.82000	0.00854	-0.04979	-0.05598	-0.00535	-0.00473	0.00175
0.59800	0.00020	0.00177	0.00108	0.00252	-3.78840	-89.82000	0.00792	-0.05586	-0.05814	-0.00792	-0.00514	0.00669
0.60000	0.00020	0.00177	0.00108	0.00252	-3.69820	-89.82000	0.00792	-0.05586	-0.05814	-0.00792	-0.00514	0.00669
0.60200	0.00020	0.00177	0.00108	0.00252	-3.69820	-89.82000	0.00792	-0.05586	-0.05814	-0.00792	-0.00514	0.00669
0.60400	0.00020	0.00177	0.00108	0.00252	-3.78840	-89.73000	0.00792	-0.05586	-0.05814	-0.00792	-0.00514	0.00669
0.60600	0.00022	0.00071	0.00103	0.00339	-3.78840	-89.73000	0.01152	-0.06183	-0.06539	-0.01213	-0.00257	0.00093
0.60800	0.00022	0.00071	0.00103	0.00339	-3.78840	-89.73000	0.01152	-0.06183	-0.06539	-0.01213	-0.00257	0.00093
0.61000	0.00022	0.00071	0.00103	0.00339	-3.69820	-89.73000	0.01152	-0.06183	-0.06539	-0.01213	-0.00257	0.00093
0.61200	0.00022	0.00071	0.00103	0.00339	-3.69820	-89.82000	0.01152	-0.06183	-0.06539	-0.01213	-0.00257	0.00093
0.61400	0.00001	0.00247	0.00080	0.00351	0.00000	0.00000	0.00679	-0.08632	-0.07850	-0.01584	-0.00565	-0.00062
0.61600	0.00001	0.00247	0.00080	0.00351	-3.69820	-89.64000	0.00679	-0.08632	-0.07850	-0.01584	-0.00565	-0.00062
0.61800	0.00001	0.00247	0.00080	0.00351	-3.69820	-89.64000	0.00679	-0.08632	-0.07850	-0.01584	-0.00565	-0.00062
0.62000	0.00001	0.00247	0.00080	0.00351	0.00000	0.00000	0.00679	-0.08632	-0.07850	-0.01584	-0.00565	-0.00062
0.62200	0.00157	0.00071	0.00122	0.00157	-3.78840	-89.73000	0.01121	-0.07726	-0.09145	-0.01203	-0.00123	-0.00093
0.62400	0.00157	0.00071	0.00122	0.00157	-3.78840	-89.73000	0.01121	-0.07726	-0.09145	-0.01203	-0.00123	-0.00093
0.62600	0.00157	0.00071	0.00122	0.00157	-3.87860	-89.82000	0.01121	-0.07726	-0.09145	-0.01203	-0.00123	-0.00093
0.62800	0.00157	0.00071	0.00122	0.00157	-3.87860	-89.91000	0.01121	-0.07726	-0.09145	-0.01203	-0.00123	-0.00093
0.63000	0.00078	0.00210	0.00045	0.00189	-3.87860	-89.91000	-0.02726	-0.08138	-0.08035	-0.01409	0.00452	0.00031
0.63200	0.00078	0.00210	0.00045	0.00189	0.00000	0.00000	-0.02726	-0.08138	-0.08035	-0.01409	0.00452	0.00031
0.63400	0.00078	0.00210	0.00045	0.00189	0.00000	0.00000	-0.02726	-0.08138	-0.08035	-0.01409	0.00452	0.00031
0.63600	0.00078	0.00210	0.00045	0.00189	-3.78840	-89.73000	-0.02726	-0.08138	-0.08035	-0.01409	0.00452	0.00031
0.63800	0.00013	0.00068	0.00084	0.00254	-3.78840	-89.64000	-0.03487	-0.05947	-0.07587	-0.00987	0.01573	0.00154
0.64000	0.00013	0.00068	0.00084	0.00254	-3.78840	-89.82000	-0.03487	-0.05947	-0.07587	-0.00987	0.01573	0.00154
0.64200	0.00013	0.00068	0.00084	0.00254	0.00000	0.00000	-0.03487	-0.05947	-0.07587	-0.00987	0.01573	0.00154
0.64400	0.00013	0.00068	0.00084	0.00254	-3.96880	-89.73000	-0.03487	-0.05947	-0.07587	-0.00987	0.01573	0.00154
0.64600	-0.00000	0.00156	0.00096	0.00322	-3.87860	-89.73000	-0.04145	-0.03364	-0.06385	-0.01121	0.01223	0.00175
0.64800	-0.00000	0.00156	0.00096	0.00322	-3.87860	-89.82000	-0.04145	-0.03364	-0.06385	-0.01121	0.01223	0.00175
0.65000	-0.00000	0.00156	0.00096	0.00322	-3.78840	-89.82000	-0.04145	-0.03364	-0.06385	-0.01121	0.01223	0.00175
0.65200	-0.00000	0.00156	0.00096	0.00322	-3.78840	-89.82000	-0.04145	-0.03364	-0.06385	-0.01121	0.01223	0.00175
0.65400	0.00091	0.00069	0.00088	0.00322	-3.78840	-89.73000	-0.04865	-0.02222	-0.06230	-0.00782	0.00987	0.00267
0.65600	0.00091	0.00069	0.00088	0.00322	0.00000	0.00000	-0.04865	-0.02222	-0.06230	-0.00782	0.00987	0.00267
0.65800	0.00091	0.00069	0.00088	0.00322	-3.78840	-89.73000	-0.04865	-0.02222	-0.06230	-0.00782	0.00987	0.00267
0.66000	0.00091	0.00069	0.00088	0.00322	-3.87860	-89.82000	-0.04865	-0.02222	-0.06230	-0.00782	0.00987	0.00267
0.66200	0.00030	0.00168	0.00058	0.00168	-3.87860	-89.73000	-0.00843	-0.00586	-0.07186	-0.00864	0.00648	0.00288
0.66400	0.00030	0.00168	0.00058	0.00168	-3.87860	-89.82000	-0.00843	-0.00586	-0.07186	-0.00864	0.00648	0.00288
0.66600	0.00030	0.00168	0.00058	0.00168	-3.87860	-89.73000	-0.00843	-0.00586	-0.07186	-0.00864	0.00648	0.00288
0.66800	0.00030	0.00168	0.00058	0.00168	-3.87860	-89.82000	-0.00843	-0.00586	-0.07186	-0.00864	0.00648	0.00288
0.67000	0.00018	0.00027	0.00119	0.00192	-3.78840	-89.82000	-0.00391	-0.02294	-0.07109	-0.00761	-0.00226	0.00648
0.67200	0.00018	0.00027	0.00119	0.00192	-3.78840	-89.82000	-0.00391	-0.02294	-0.07109	-0.00761	-0.00226	0.00648
0.67400	0.00018	0.00027	0.00119	0.00192	-3.78840	-89.73000	-0.00391	-0.02294	-0.07109	-0.00761	-0.00226	0.00648
0.67600	0.00018	0.00027	0.00119	0.00192	-3.78840	-89.73000	-0.00391	-0.02294	-0.07109	-0.00761	-0.00226	0.00648
0.67800	-0.00038	0.00244	0.00090	0.00145	0.00000	0.00000	0.03518	-0.04136	-0.05660	-0.00411	-0.01090	0.00874
0.68000	-0.00038	0.00244	0.00090	0.00145	-3.78840	-89.82000	0.03518	-0.04136	-0.05660	-0.00411	-0.01090	0.00874
0.68200	-0.00038	0.00244	0.00090	0.00145	-3.87860	-89.73000	0.03518	-0.04136	-0.05660	-0.00411	-0.01090	0.00874
0.68400	-0.00038	0.00244	0.00090	0.00145	-3.78840	-89.82000	0.03518	-0.04136	-0.05660	-0.00411	-0.01090	0.00874
0.68600	0.00107	0.00066	0.00075	0.00169	-3.78840	-89.82000	0.04361	-0.03683	-0.04873	-0.01162	-0.01028	0.00309
0.68800	0.00107	0.00066	0.00075	0.00169	-3.78840	-89.73000	0.04361	-0.03683	-0.04873	-0.01162	-0.01028	0.00309
0.69000	0.00107	0.00066	0.00075	0.00169	-3.78840	-89.73000	0.04361	-0.03683	-0.04873	-0.01162	-0.01028	0.00309
0.69200	0.00107	0.00066	0.00075	0.00169	-3.78840	-89.73000	0.04361	-0.03683	-0.04873	-0.01162	-0.01028	0.00309
0.69400	0.00032	0.00183	0.00087	0.00412	-3.78840	-89.73000	0.05688	-0.05556	-0.02838	-0.01111	-0.01450	0.00350
0.69600	0.00032	0.00183	0.00087	0.00412	-3.69820	-89.82000	0.05688	-0.05556	-0.02838	-0.01111	-0.01450	0.00350
0.69800	0.00032	0.00183	0.00087	0.00412	-3.78840	-89.82000	0.05688	-0.05556	-0.02838	-0.01111	-0.01450	0.00350
0.70000	0.00032	0.00183	0.00087	0.00412	0.00000	0.00000	0.05688	-0.05556	-0.02838	-0.01111	-0.01450	0.00350
0.70200	0.00002	0.00065	0.00096	0.00253	-3.78840	-89.82000	0.09165	-0.04033	-0.01434	-0.00278	-0.02406	0.00298
0.70400	0.00002	0.00065	0.00096	0.00253	-3.69820	-89.82000	0.09165	-0.04033	-0.01434	-0.00278	-0.02406	0.00298
0.70600	0.00002	0.00065	0.00096	0.00253	-3.78840	-89.73000	0.09165	-0.04033	-0.01434	-0.00278	-0.02406	0.00298
0.70800	0.00002	0.00065	0.00096	0.00253	-3.78840	-89.73000	0.09165	-0.04033	-0.01434	-0.00278	-0.02406	0.00298
0.71000	0.00115	0.00185	0.00076	0.00197	-3.69820	-89.91000	0.08352	-0.04105	-0.01496	-0.00514	-0.02786	0.00165
0.71200	0.00115	0.00185	0.00076	0.00197	-3.69820	-89.82000	0.08352	-0.04105	-0.01496	-0.00514	-0.02786	0.00165
0.71400	0.00115	0.00185	0.00076	0.00197	0.00000	0.00000	0.08352	-0.04105	-0.01496	-0.00514	-0.02786	0.00165
0.71600	0.00115	0.00185	0.00076	0.00197	-3.69820	-89.91000	0.08352	-0.04105	-0.01496	-0.00514	-0.02786	0.00165
0.71800	0.00079	0.00073	0.00095	0.00153	-3.69820	-89.91000	0.08424	-0.03179	0.00231	-0.00401	-0.02838	0.00257
0.72000	0.00079	0.00073	0.00095	0.00153	-3.69820	-89.73000	0.08424	-0.03179	0.00231	-0.00401	-0.02838	0.00257
0.72200	0.00079	0.00073	0.00095	0.00153	0.00000	0.00000	0.08424	-0.03179	0.00231	-0.00401	-0.02838	0.00257
0.72400	0.00079	0.00073	0.00095	0.00153	-3.78840	-89.73000	0.08424	-0.03179	0.00231	-0.00401	-0.02838	0.00257
0.72600	-0.00011	0.00171	0.00072	0.00104	-3.60800	-89.82000	0.07354	-0.03035	0.00370	-0.00206	-0.02210	0.00062
0.72800	-0.00011	0.00171	0.00072	0.00104	-3.69820	-89.73000	0.07354	-0.03035	0.00370	-0.00206	-0.02210	0.00062
0.73000	-0.00011	0.00171	0.00072	0.00104	-3.78840	-89.73000	0.07354	-0.03035	0.00370	-0.00206	-0.02210	0.00062
0.73200	-0.00011	0.00171	0.00072	0.00104	-3.78840	-89.73000	0.07354	-0.03035	0.00370	-0.00206	-0.02210	0.00062
0.73400	0.00023	0.00076	0.00079	0.00192	-3.69820	-89.73000	0.03888	-0.04064	0.00015	-0.00668	-0.01532	-0.00082
0.73600	0.00023	0.00076	0.00079	0.00192	-3.69820	-89.82000	0.03888	-0.04064	0.00015	-0.00668	-0.01532	-0.00082
0.73800	0.00023	0.00076	0.00079	0.00192	-3.78840	-89.73000	0.03888	-0.04064	0.00015	-0.00668	-0.01532	-0.00082
0.74000	0.00023	0.00076	0.00079	0.00192	-3.78840	-89.64000	0.03888	-0.04064	0.00015	-0.00668	-0.01532	-0.00082
0.74200	0.00110	0.00145	0.00070	0.00299	-3.78840	-89.73000	0.02818	-0.03652	-0.01527	-0.00298	-0.00740	0.00103
0.74400	0.00110	0.00145	0.00070	0.00299	-3.78840	-89.73000	0.02818	-0.03652	-0.01527	-0.00298	-0.00740	0.00103
0.74600	0.00110	0.00145	0.00070	0.00299	-3.78840	-89.64000	0.02818	-0.03652	-0.01527	-0.00298	-0.00740	0.00103
0.74800	0.00110	0.00145	0.00070	0.00299	-3.87860	-89.73000	0.02818	-0.03652	-0.01527	-0.00298	-0.00740	0.00103
0.75000	-0.00005	0.00115	0.00094	0.00241	-3.87860	-89.82000	0.00360	-0.05051	-0.00370	-0.00524	-0.00247	0.00381
0.75200	-0.00005	0.00115	0.00094	0.00241	-3.78840	-89.91000	0.00360	-0.05051	-0.00370	-0.00524	-0.00247	0.00381
0.75400	-0.00005	0.00115	0.00094	0.00241	-3.78840	-89.82000	0.00360	-0.05051	-0.00370	-0.00524	-0.00247	0.00381
0.75600	-0.00005	0.00115	0.00094	0.00241	-3.87860	-89.73000	0.00360	-0.05051	-0.00370	-0.00524	-0.00247	0.00381
0.75800	-0.00010	0.00134	0.00069	0.00188	0.00000	0.00000	-0.01173	-0.03025	-0.00894	0.00165	0.00422	0.00607
0.76000	-0.00010	0.00134	0.00069	0.00188	-3.87860	-89.82000	-0.01173	-0.03025	-0.00894	0.00165	0.00422	0.00607
0.76200	-0.00010	0.00134	0.00069	0.00188	-3.87860	-89.91000	-0.01173	-0.03025	-0.00894	0.00165	0.00422	0.00607
0.76400	-0.00010	0.00134	0.00069	0.00188	-3.78840	-89.91000	-0.01173	-0.03025	-0.00894	0.00165	0.00422	0.00607
0.76600	-0.00015	0.00057	0.00085	0.00158	-3.87860	-89.91000	-0.00617	-0.00484	-0.00093	0.00370	0.00586	0.00113
0.76800	-0.00015	0.00057	0.00085	0.00158	-3.87860	-90.00000	-0.00617	-0.00484	-0.00093	0.00370	0.00586	0.00113
0.77000	-0.00015	0.00057	0.00085	0.00158	-3.87860	-90.00000	-0.00617	-0.00484	-0.00093	0.00370	0.00586	0.00113
0.77200	-0.00015	0.00057	0.00085	0.00158	-3.87860	-89.73000	-0.00617	-0.00484	-0.00093	0.00370	0.00586	0.00113
0.77400	0.00166	0.00140	0.00066	0.00148	-3.78840	-89.73000	-0.00617	-0.00484	-0.00093	0.00370	0.00586	0.00113
0.77600	0.00152	0.00069	0.00120	0.00165	-3.69820	-89.64000	-0.01173	0.00628	-0.01866	0.00082	0.00545	0.00627
0.77800	0.00152	0.00069	0.00120	0.00165	-3.60800	-89.64000	-0.01173	0.00628	-0.01866	0.00082	0.00545	0.00627
0.78000	0.00152	0.00069	0.00120	0.00165	0.00000	0.00000	-0.01173	0.00628	-0.01866	0.00082	0.00545	0.00627
0.78200	0.00152	0.00069	0.00120	0.00165	-3.69820	-89.73000	-0.01173	0.00628	-0.01866	0.00082	0.00545	0.00627
0.78400	0.00050	0.00201	0.00084	0.00260	-3.78840	-89.73000	0.01121	0.02068	-0.05999	0.00782	-0.00483	0.00576
0.78600	0.00050	0.00201	0.00084	0.00260	-3.87860	-89.82000	0.01121	0.02068	-0.05999	0.00782	-0.00483	0.00576
0.78800	0.00050	0.00201	0.00084	0.00260	-3.87860	-89.73000	0.01121	0.02068	-0.05999	0.00782	-0.00483	0.00576
0.79000	0.00050	0.00201	0.00084	0.00260	-3.87860	-89.73000	0.01121	0.02068	-0.05999	0.00782	-0.00483	0.00576
0.79200	-0.00026	0.00110	0.00101	0.00221	-3.78840	-89.73000	0.01121	0.02068	-0.05999	0.00782	-0.00483	0.00576
0.79400	0.00018	0.00133	0.00063	0.00178	-3.87860	-89.91000	-0.00833	0.00813	-0.08189	0.00566	-0.00288	0.00607
0.79600	0.00018	0.00133	0.00063	0.00178	-3.78840	-89.91000	-0.00833	0.00813	-0.08189	0.00566	-0.00288	0.00607
0.79800	0.00018	0.00133	0.00063	0.00178	-3.78840	-89.91000	-0.00833	0.00813	-0.08189	0.00566	-0.00288	0.00607
0.80000	0.00018	0.00133	0.00063	0.00178	-3.69820	-89.73000	-0.00833	0.00813	-0.08189	0.00566	-0.00288	0.00607
0.80200	-0.00006	0.00217	0.00075	0.00138	0.00000	0.00000	-0.00597	0.00463	-0.10965	0.00452	0.00473	0.00267
0.80400	-0.00006	0.00217	0.00075	0.00138	-3.69820	-89.73000	-0.00597	0.00463	-0.10965	0.00452	0.00473	0.00267
0.80600	-0.00006	0.00217	0.00075	0.00138	-3.78840	-89.64000	-0.00597	0.00463	-0.10965	0.00452	0.00473	0.00267
0.80800	-0.00006	0.00217	0.00075	0.00138	-3.87860	-89.73000	-0.00597	0.00463	-0.10965	0.00452	0.00473	0.00267
0.81000	0.00167	0.00099	0.00075	0.00165	-3.78840	-89.73000	-0.04238	-0.03344	-0.11104	0.00483	0.00483	-0.00267
0.81200	0.00167	0.00099	0.00075	0.00165	-3.78840	-89.73000	-0.04238	-0.03344	-0.11104	0.00483	0.00483	-0.00267
0.81400	0.00167	0.00099	0.00075	0.00165	-3.78840	-89.82000	-0.04238	-0.03344	-0.11104	0.00483	0.00483	-0.00267
0.81600	0.00167	0.00099	0.00075	0.00165	-3.78840	-89.73000	-0.04238	-0.03344	-0.11104	0.00483	0.00483	-0.00267
0.81800	0.00011	0.00144	0.00106	0.00257	-3.78840	-89.73000	-0.03641	-0.04187	-0.10070	0.00360	0.00576	-0.00483
0.82000	0.00011	0.00144	0.00106	0.00257	-3.78840	-89.73000	-0.03641	-0.04187	-0.10070	0.00360	0.00576	-0.00483
0.82200	0.00011	0.00144	0.00106	0.00257	-3.69820	-89.73000	-0.03641	-0.04187	-0.10070	0.00360	0.00576	-0.00483
0.82400	0.00011	0.00144	0.00106	0.00257	0.00000	0.00000	-0.03641	-0.04187	-0.10070	0.00360	0.00576	-0.00483
0.82600	-0.00027	0.00055	0.00105	0.00128	-3.78840	-89.73000	-0.03641	-0.04187	-0.10070	0.00360	0.00576	-0.00483
0.82800	-0.00072	0.00299	0.00033	0.00141	-3.78840	-89.73000	-0.01173	-0.03786	-0.10579	0.00380	-0.00864	0.00031
0.83000	-0.00072	0.00299	0.00033	0.00141	-3.69820	-89.64000	-0.01173	-0.03786	-0.10579	0.00380	-0.00864	0.00031
0.83200	-0.00072	0.00299	0.00033	0.00141	-3.69820	-89.64000	-0.01173	-0.03786	-0.10579	0.00380	-0.00864	0.00031
0.83400	-0.00072	0.00299	0.00033	0.00141	-3.69820	-89.64000	-0.01173	-0.03786	-0.10579	0.00380	-0.00864	0.00031
0.83600	0.00139	0.00148	0.00056	0.00164	-3.69820	-89.64000	0.00874	-0.02562	-0.08297	0.00617	-0.01193	0.00082
0.83800	0.00139	0.00148	0.00056	0.00164	0.00000	0.00000	0.00874	-0.02562	-0.08297	0.00617	-0.01193	0.00082
0.84000	0.00139	0.00148	0.00056	0.00164	-3.69820	-89.73000	0.00874	-0.02562	-0.08297	0.00617	-0.01193	0.00082
0.84200	0.00139	0.00148	0.00056	0.00164	-3.69820	-89.73000	0.00874	-0.02562	-0.08297	0.00617	-0.01193	0.00082
0.84400	0.00104	0.00104	0.00072	0.00251	-3.69820	-89.64000	0.04145	0.00586	-0.06184	0.00607	-0.00894	-0.00267
0.84600	0.00104	0.00104	0.00072	0.00251	-3.69820	-89.55000	0.04145	0.00586	-0.06184	0.00607	-0.00894	-0.00267
0.84800	0.00104	0.00104	0.00072	0.00251	-3.69820	-89.55000	0.04145	0.00586	-0.06184	0.00607	-0.00894	-0.00267
0.85000	0.00104	0.00104	0.00072	0.00251	-3.69820	-89.46000	0.04145	0.00586	-0.06184	0.00607	-0.00894	-0.00267
0.85200	-0.00026	0.00105	0.00110	0.00181	-3.69820	-89.64000	0.03857	0.00782	-0.04241	0.00720	-0.01614	-0.00339
0.85400	-0.00026	0.00105	0.00110	0.00181	-3.78840	-89.55000	0.03857	0.00782	-0.04241	0.00720	-0.01614	-0.00339
0.85600	-0.00026	0.00105	0.00110	0.00181	-3.78840	-89.55000	0.03857	0.00782	-0.04241	0.00720	-0.01614	-0.00339
0.85800	-0.00026	0.00105	0.00110	0.00181	-3.87860	-89.55000	0.03857	0.00782	-0.04241	0.00720	-0.01614	-0.00339
0.86000	0.00001	0.00121	0.00056	0.00195	0.00000	0.00000	0.05235	0.03004	-0.03855	0.00668	-0.01326	-0.00062
0.86200	0.00001	0.00121	0.00056	0.00195	-3.87860	-89.64000	0.05235	0.03004	-0.03855	0.00668	-0.01326	-0.00062
0.86400	0.00001	0.00121	0.00056	0.00195	-3.87860	-89.64000	0.05235	0.03004	-0.03855	0.00668	-0.01326	-0.00062
0.86600	0.00001	0.00121	0.00056	0.00195	-3.96880	-89.64000	0.05235	0.03004	-0.03855	0.00668	-0.01326	-0.00062
0.86800	0.00150	0.00169	0.00005	0.00298	-3.78840	-89.64000	0.03867	0.01924	-0.05135	0.00720	-0.01429	0.00237
0.87000	0.00150	0.00169	0.00005	0.00298	-3.78840	-89.73000	0.03867	0.01924	-0.05135	0.00720	-0.01429	0.00237
0.87200	0.00150	0.00169	0.00005	0.00298	-3.69820	-89.64000	0.03867	0.01924	-0.05135	0.00720	-0.01429	0.00237
0.87400	0.00150	0.00169	0.00005	0.00298	0.00000	0.00000	0.03867	0.01924	-0.05135	0.00720	-0.01429	0.00237
0.87600	0.00030	0.00104	0.00052	0.00156	-3.78840	-89.73000	0.02078	0.01368	-0.05105	0.00771	-0.01193	0.00123
0.87800	0.00030	0.00104	0.00052	0.00156	-3.78840	-90.00000	0.02078	0.01368	-0.05105	0.00771	-0.01193	0.00123
0.88000	0.00030	0.00104	0.00052	0.00156	-3.78840	-90.00000	0.02078	0.01368	-0.05105	0.00771	-0.01193	0.00123
0.88200	0.00030	0.00104	0.00052	0.00156	-3.69820	-89.91000	0.02078	0.01368	-0.05105	0.00771	-0.01193	0.00123
0.88400	0.00010	0.00113	0.00100	0.00190	-3.69820	-89.82000	0.02870	0.02222	-0.04071	0.00514	-0.01038	0.00555
0.88600	0.00010	0.00113	0.00100	0.00190	-3.78840	-89.82000	0.02870	0.02222	-0.04071	0.00514	-0.01038	0.00555
0.88800	0.00010	0.00113	0.00100	0.00190	-3.78840	-89.82000	0.02870	0.02222	-0.04071	0.00514	-0.01038	0.00555
0.89000	0.00010	0.00113	0.00100	0.00190	-3.78840	-89.73000	0.02870	0.02222	-0.04071	0.00514	-0.01038	0.00555
0.89200	0.00034	0.00118	0.00066	0.00243	-3.78840	-89.91000	0.00535	0.01296	-0.03501	0.00648	-0.00812	0.00257
0.89400	0.00034	0.00118	0.00066	0.00243	-3.78840	-89.82000	0.00535	0.01296	-0.03501	0.00648	-0.00812	0.00257
0.89600	0.00034	0.00118	0.00066	0.00243	0.00000	0.00000	0.00535	0.01296	-0.03501	0.00648	-0.00812	0.00257
0.89800	0.00034	0.00118	0.00066	0.00243	-3.69820	-89.91000	0.00535	0.01296	-0.03501	0.00648	-0.00812	0.00257
0.90000	0.00165	0.00099	0.00075	0.00272	-3.69820	-89.91000	0.02139	0.02634	-0.02421	0.00864	-0.00884	0.00381
0.90200	0.00165	0.00099	0.00075	0.00272	-3.78840	-89.91000	0.02139	0.02634	-0.02421	0.00864	-0.00884	0.00381
0.90400	0.00165	0.00099	0.00075	0.00272	-3.69820	-89.91000	0.02139	0.02634	-0.02421	0.00864	-0.00884	0.00381
0.90600	0.00165	0.00099	0.00075	0.00272	-3.78840	-89.91000	0.02139	0.02634	-0.02421	0.00864	-0.00884	0.00381
0.90800	0.00033	0.00128	0.00093	0.00146	-3.78840	-89.91000	0.01173	-0.00350	-0.02668	0.00010	-0.01388	0.00473
0.91000	0.00033	0.00128	0.00093	0.00146	-3.78840	-89.82000	0.01173	-0.00350	-0.02668	0.00010	-0.01388	0.00473
0.91200	0.00033	0.00128	0.00093	0.00146	-3.87860	-89.82000	0.01173	-0.00350	-0.02668	0.00010	-0.01388	0.00473
0.91400	0.00033	0.00128	0.00093	0.00146	-3.60800	-89.82000	0.01173	-0.00350	-0.02668	0.00010	-0.01388	0.00473
0.91600	0.00041	0.00107	0.00111	0.00190	-3.60800	0.00000	0.01173	-0.00350	-0.02668	0.00010	-0.01388	0.00473
0.91800	0.00088	0.00110	0.00066	0.00181	0.00000	0.00000	0.00319	-0.02037	-0.01959	0.00051	-0.00966	0.00041
0.92000	0.00088	0.00110	0.00066	0.00181	-3.78840	-89.82000	0.00319	-0.02037	-0.01959	0.00051	-0.00966	0.00041
0.92200	0.00088	0.00110	0.00066	0.00181	-3.78840	-89.82000	0.00319	-0.02037	-0.01959	0.00051	-0.00966	0.00041
0.92400	0.00088	0.00110	0.00066	0.00181	-3.69820	-89.73000	0.00319	-0.02037	-0.01959	0.00051	-0.00966	0.00041
0.92600	-0.00026	0.00168	0.00089	0.00144	-3.60800	-89.82000	0.02304	-0.01883	-0.04457	0.00555	-0.00884	-0.00154
0.92800	-0.00026	0.00168	0.00089	0.00144	-3.60800	-89.82000	0.02304	-0.01883	-0.04457	0.00555	-0.00884	-0.00154
0.93000	-0.00026	0.00168	0.00089	0.00144	-3.60800	-89.82000	0.02304	-0.01883	-0.04457	0.00555	-0.00884	-0.00154
0.93200	-0.00026	0.00168	0.00089	0.00144	0.00000	0.00000	0.02304	-0.01883	-0.04457	0.00555	-0.00884	-0.00154
0.93400	0.00169	0.00088	0.00079	0.00253	-3.69820	-89.82000	0.00350	-0.04661	-0.03701	0.00103	-0.00905	-0.00309
0.93600	0.00169	0.00088	0.00079	0.00253	-3.69820	-89.82000	0.00350	-0.04661	-0.03701	0.00103	-0.00905	-0.00309
0.93800	0.00169	0.00088	0.00079	0.00253	-3.69820	-89.82000	0.00350	-0.04661	-0.03701	0.00103	-0.00905	-0.00309
0.94000	0.00169	0.00088	0.00079	0.00253	-3.69820	-89.82000	0.00350	-0.04661	-0.03701	0.00103	-0.00905	-0.00309
0.94200	-0.00010	0.00196	0.00068	0.00231	-3.78840	-89.91000	0.01718	-0.02644	-0.05475	0.00010	-0.01090	-0.00535
0.94400	-0.00010	0.00196	0.00068	0.00231	-3.69820	-89.82000	0.01718	-0.02644	-0.05475	0.00010	-0.01090	-0.00535
0.94600	-0.00010	0.00196	0.00068	0.00231	0.00000	0.00000	0.01718	-0.02644	-0.05475	0.00010	-0.01090	-0.00535
0.94800	-0.00010	0.00196	0.00068	0.00231	-3.69820	-89.73000	0.01718	-0.02644	-0.05475	0.00010	-0.01090	-0.00535
0.95000	0.00076	0.00113	0.00075	0.00219	-3.69820	-89.73000	0.01584	-0.04352	-0.07063	-0.00350	-0.01398	-0.00926
0.95200	0.00076	0.00113	0.00075	0.00219	-3.69820	-89.73000	0.01584	-0.04352	-0.07063	-0.00350	-0.01398	-0.00926
0.95400	0.00076	0.00113	0.00075	0.00219	-3.69820	-89.64000	0.01584	-0.04352	-0.07063	-0.00350	-0.01398	-0.00926
0.95600	0.00076	0.00113	0.00075	0.00219	-3.78840	-89.64000	0.01584	-0.04352	-0.07063	-0.00350	-0.01398	-0.00926
0.95800	-0.00012	0.00189	0.00112	0.00301	-3.87860	-89.73000	0.01255	-0.02778	-0.08312	0.00082	-0.01398	-0.00442
0.96000	-0.00012	0.00189	0.00112	0.00301	-3.87860	-89.82000	0.01255	-0.02778	-0.08312	0.00082	-0.01398	-0.00442
0.96200	-0.00012	0.00189	0.00112	0.00301	-3.87860	-89.82000	0.01255	-0.02778	-0.08312	0.00082	-0.01398	-0.00442
0.96400	-0.00012	0.00189	0.00112	0.00301	-3.87860	-89.73000	0.01255	-0.02778	-0.08312	0.00082	-0.01398	-0.00442
0.96600	0.00162	0.00072	0.00103	0.00134	-3.87860	-89.64000	0.03466	-0.01759	-0.08143	-0.00483	-0.00226	-0.00237
0.96800	0.00162	0.00072	0.00103	0.00134	0.00000	0.00000	0.03466	-0.01759	-0.08143	-0.00483	-0.00226	-0.00237
0.97000	0.00162	0.00072	0.00103	0.00134	-3.78840	-89.73000	0.03466	-0.01759	-0.08143	-0.00483	-0.00226	-0.00237
0.97200	0.00162	0.00072	0.00103	0.00134	-3.78840	-89.73000	0.03466	-0.01759	-0.08143	-0.00483	-0.00226	-0.00237
0.97400	0.00040	0.00193	0.00082	0.00205	-3.69820	-89.73000	0.03466	-0.01759	-0.08143	-0.00483	-0.00226	-0.00237
0.97600	-0.00090	0.00115	0.00021	0.00241	-3.69820	-89.73000	0.00144	-0.01955	-0.05737	-0.00154	-0.00689	0.00504
0.97800	-0.00090	0.00115	0.00021	0.00241	-3.69820	-89.82000	0.00144	-0.01955	-0.05737	-0.00154	-0.00689	0.00504
0.98000	-0.00090	0.00115	0.00021	0.00241	-3.78840	-89.73000	0.00144	-0.01955	-0.05737	-0.00154	-0.00689	0.00504
0.98200	-0.00090	0.00115	0.00021	0.00241	0.00000	0.00000	0.00144	-0.01955	-0.05737	-0.00154	-0.00689	0.00504
0.98400	-0.00034	0.00065	0.00049	0.00275	-3.87860	-89.82000	0.01471	-0.00412	-0.06493	0.00041	-0.00308	0.00206
0.98600	-0.00034	0.00065	0.00049	0.00275	-3.87860	-89.91000	0.01471	-0.00412	-0.06493	0.00041	-0.00308	0.00206
0.98800	-0.00034	0.00065	0.00049	0.00275	-3.87860	-89.82000	0.01471	-0.00412	-0.06493	0.00041	-0.00308	0.00206
0.99000	-0.00034	0.00065	0.00049	0.00275	-3.87860	-89.91000	0.01471	-0.00412	-0.06493	0.00041	-0.00308	0.00206
0.99200	0.00121	0.00118	0.00090	0.00286	-3.96880	-89.82000	-0.01697	-0.01800	-0.05706	-0.00586	-0.00236	0.00648
0.99400	0.00121	0.00118	0.00090	0.00286	-3.87860	-89.82000	-0.01697	-0.01800	-0.05706	-0.00586	-0.00236	0.00648
0.99600	0.00121	0.00118	0.00090	0.00286	-3.87860	-89.73000	-0.01697	-0.01800	-0.05706	-0.00586	-0.00236	0.00648
0.99800	0.00121	0.00118	0.00090	0.00286	-3.87860	-89.64000	-0.01697	-0.01800	-0.05706	-0.00586	-0.00236	0.00648
1.00000	0.00049	0.00045	0.00101	0.00273	-3.78840	-89.64000	-0.00895	-0.02984	-0.05536	-0.00648	-0.00134	0.00874
1.00200	0.00049	0.00045	0.00101	0.00273	-3.78840	-89.73000	-0.00895	-0.02984	-0.05536	-0.00648	-0.00134	0.00874
1.00400	0.00049	0.00045	0.00101	0.00273	0.00000	0.00000	-0.00895	-0.02984	-0.05536	-0.00648	-0.00134	0.00874
1.00600	0.00049	0.00045	0.00101	0.00273	-3.78840	-89.82000	-0.00895	-0.02984	-0.05536	-0.00648	-0.00134	0.00874
1.00800	0.00024	0.00118	0.00075	0.00104	-3.87860	-89.73000	-0.00576	-0.03868	-0.04626	-0.01193	-0.00082	0.00915
1.01000	0.00024	0.00118	0.00075	0.00104	-3.78840	-89.82000	-0.00576	-0.03868	-0.04626	-0.01193	-0.00082	0.00915
1.01200	0.00024	0.00118	0.00075	0.00104	-3.87860	-89.82000	-0.00576	-0.03868	-0.04626	-0.01193	-0.00082	0.00915
1.01400	0.00024	0.00118	0.00075	0.00104	-3.78840	-89.82000	-0.00576	-0.03868	-0.04626	-0.01193	-0.00082	0.00915
1.01600	-0.00009	0.00107	0.00094	0.00187	-3.78840	-89.64000	-0.01831	-0.04506	-0.03979	-0.00483	-0.00411	0.00144
1.01800	-0.00037	0.00189	0.00105	0.00163	-3.87860	-89.73000	-0.01831	-0.04506	-0.03979	-0.00483	-0.00411	0.00144
1.02000	-0.00037	0.00189	0.00105	0.00163	-3.87860	-89.73000	-0.01831	-0.04506	-0.03979	-0.00483	-0.00411	0.00144
1.02200	-0.00037	0.00189	0.00105	0.00163	-3.87860	-89.82000	-0.01831	-0.04506	-0.03979	-0.00483	-0.00411	0.00144
1.02400	-0.00037	0.00189	0.00105	0.00163	-3.96880	-89.82000	-0.01831	-0.04506	-0.03979	-0.00483	-0.00411	0.00144
1.02600	0.00165	0.00088	0.00089	0.00313	-3.96880	-89.73000	-0.01831	-0.04506	-0.03979	-0.00483	-0.00411	0.00144
1.02800	0.00026	0.00037	0.00094	0.00323	-3.96880	-89.73000	0.01491	-0.04753	-0.03346	-0.00802	-0.00051	-0.00216
1.03000	0.00026	0.00037	0.00094	0.00323	-3.87860	-89.73000	0.01491	-0.04753	-0.03346	-0.00802	-0.00051	-0.00216
1.03200	0.00026	0.00037	0.00094	0.00323	-3.87860	-89.73000	0.01491	-0.04753	-0.03346	-0.00802	-0.00051	-0.00216
1.03400	0.00026	0.00037	0.00094	0.00323	-3.78840	-89.73000	0.01491	-0.04753	-0.03346	-0.00802	-0.00051	-0.00216
1.03600	0.00032	0.00226	0.00058	0.00227	-3.78840	-89.82000	0.00339	-0.06296	-0.03023	-0.01100	-0.00483	-0.00134
1.03800	0.00032	0.00226	0.00058	0.00227	0.00000	0.00000	0.00339	-0.06296	-0.03023	-0.01100	-0.00483	-0.00134
1.04000	0.00032	0.00226	0.00058	0.00227	0.00000	0.00000	0.00339	-0.06296	-0.03023	-0.01100	-0.00483	-0.00134
1.04200	0.00032	0.00226	0.00058	0.00227	-3.96880	-89.73000	0.00339	-0.06296	-0.03023	-0.01100	-0.00483	-0.00134
1.04400	0.00002	0.00050	0.00111	0.00183	-3.96880	-89.73000	0.01574	-0.05895	-0.02529	-0.01172	-0.00154	-0.00453
1.04600	0.00002	0.00050	0.00111	0.00183	-3.87860	-89.73000	0.01574	-0.05895	-0.02529	-0.01172	-0.00154	-0.00453
1.04800	0.00002	0.00050	0.00111	0.00183	-3.87860	-89.82000	0.01574	-0.05895	-0.02529	-0.01172	-0.00154	-0.00453
1.05000	0.00002	0.00050	0.00111	0.00183	-3.87860	-89.73000	0.01574	-0.05895	-0.02529	-0.01172	-0.00154	-0.00453
1.05200	-0.00009	0.00145	0.00086	0.00162	-3.78840	-89.82000	0.01502	-0.08477	-0.00324	-0.01851	-0.00175	-0.00082
1.05400	-0.00009	0.00145	0.00086	0.00162	-3.69820	-89.73000	0.01502	-0.08477	-0.00324	-0.01851	-0.00175	-0.00082
1.05600	-0.00009	0.00145	0.00086	0.00162	-3.69820	-89.82000	0.01502	-0.08477	-0.00324	-0.01851	-0.00175	-0.00082
1.05800	-0.00009	0.00145	0.00086	0.00162	-3.78840	-89.82000	0.01502	-0.08477	-0.00324	-0.01851	-0.00175	-0.00082
1.06000	0.00158	0.00073	0.00115	0.00149	-3.69820	-89.73000	0.01522	-0.08889	-0.01080	-0.02591	-0.00565	0.00123
1.06200	0.00158	0.00073	0.00115	0.00149	-3.78840	-89.73000	0.01522	-0.08889	-0.01080	-0.02591	-0.00565	0.00123
1.06400	0.00158	0.00073	0.00115	0.00149	-3.78840	-89.73000	0.01522	-0.08889	-0.01080	-0.02591	-0.00565	0.00123
1.06600	0.00158	0.00073	0.00115	0.00149	-3.78840	-89.73000	0.01522	-0.08889	-0.01080	-0.02591	-0.00565	0.00123
1.06800	0.00012	0.00244	0.00059	0.00198	-3.78840	-89.64000	0.02541	-0.09115	-0.03886	-0.01707	-0.00874	0.00339
1.07000	0.00012	0.00244	0.00059	0.00198	0.00000	0.00000	0.02541	-0.09115	-0.03886	-0.01707	-0.00874	0.00339
1.07200	0.00012	0.00244	0.00059	0.00198	-3.87860	-89.73000	0.02541	-0.09115	-0.03886	-0.01707	-0.00874	0.00339
1.07400	0.00012	0.00244	0.00059	0.00198	-3.69820	-89.73000	0.02541	-0.09115	-0.03886	-0.01707	-0.00874	0.00339
1.07600	0.00009	0.00055	0.00087	0.00377	-3.69820	-89.73000	0.01337	-0.08755	-0.04457	-0.01964	-0.01254	0.00453
1.07800	0.00009	0.00055	0.00087	0.00377	-3.78840	-89.82000	0.01337	-0.08755	-0.04457	-0.01964	-0.01254	0.00453
1.08000	0.00009	0.00055	0.00087	0.00377	-3.87860	-89.82000	0.01337	-0.08755	-0.04457	-0.01964	-0.01254	0.00453
1.08200	0.00009	0.00055	0.00087	0.00377	-3.87860	-89.82000	0.01337	-0.08755	-0.04457	-0.01964	-0.01254	0.00453
1.08400	-0.00021	0.00228	0.00097	0.00258	0.00000	0.00000	0.04629	-0.05082	-0.05953	-0.02231	-0.01285	0.00977
1.08600	-0.00021	0.00228	0.00097	0.00258	-3.87860	-89.82000	0.04629	-0.05082	-0.05953	-0.02231	-0.01285	0.00977
1.08800	-0.00021	0.00228	0.00097	0.00258	-3.87860	-89.82000	0.04629	-0.05082	-0.05953	-0.02231	-0.01285	0.00977
1.09000	-0.00021	0.00228	0.00097	0.00258	-3.96880	-89.91000	0.04629	-0.05082	-0.05953	-0.02231	-0.01285	0.00977
1.09200	0.00085	0.00045	0.00094	0.00166	-3.87860	-89.82000	0.06079	-0.05617	-0.06647	-0.01882	-0.02467	0.00946
1.09400	0.00085	0.00045	0.00094	0.00166	-3.78840	-89.82000	0.06079	-0.05617	-0.06647	-0.01882	-0.02467	0.00946
1.09600	0.00085	0.00045	0.00094	0.00166	-3.78840	-89.82000	0.06079	-0.05617	-0.06647	-0.01882	-0.02467	0.00946
1.09800	0.00085	0.00045	0.00094	0.00166	-3.78840	-89.82000	0.06079	-0.05617	-0.06647	-0.01882	-0.02467	0.00946
1.10000	0.00015	0.00215	0.00077	0.00125	-3.87860	-89.91000	0.07385	-0.04877	-0.06169	-0.01532	-0.02313	0.00699
1.10200	0.00015	0.00215	0.00077	0.00125	-3.78840	-89.73000	0.07385	-0.04877	-0.06169	-0.01532	-0.02313	0.00699
1.10400	0.00015	0.00215	0.00077	0.00125	-3.69820	-89.73000	0.07385	-0.04877	-0.06169	-0.01532	-0.02313	0.00699
1.10600	0.00015	0.00215	0.00077	0.00125	0.00000	0.00000	0.07385	-0.04877	-0.06169	-0.01532	-0.02313	0.00699
1.10800	0.00002	0.00078	0.00093	0.00230	-3.78840	-89.73000	0.08136	-0.04465	-0.07634	-0.02098	-0.02673	0.00782
1.11000	0.00002	0.00078	0.00093	0.00230	-3.69820	-89.91000	0.08136	-0.04465	-0.07634	-0.02098	-0.02673	0.00782
1.11200	0.00002	0.00078	0.00093	0.00230	-3.78840	-89.82000	0.08136	-0.04465	-0.07634	-0.02098	-0.02673	0.00782
1.11400	0.00002	0.00078	0.00093	0.00230	-3.69820	-89.73000	0.08136	-0.04465	-0.07634	-0.02098	-0.02673	0.00782
1.11600	0.00032	0.00210	0.00065	0.00237	-3.78840	-89.73000	0.05030	-0.07850	-0.09145	-0.02005	-0.02200	0.00915
1.11800	0.00032	0.00210	0.00065	0.00237	-3.69820	-89.73000	0.05030	-0.07850	-0.09145	-0.02005	-0.02200	0.00915
1.12000	0.00032	0.00210	0.00065	0.00237	-3.60800	-89.73000	0.05030	-0.07850	-0.09145	-0.02005	-0.02200	0.00915
1.12200	0.00032	0.00210	0.00065	0.00237	-3.69820	-89.55000	0.05030	-0.07850	-0.09145	-0.02005	-0.02200	0.00915
1.12400	0.00094	0.00056	0.00068	0.00321	-3.60800	-89.64000	0.05307	-0.09115	-0.09345	-0.02242	-0.00812	0.00391
1.12600	0.00094	0.00056	0.00068	0.00321	-3.69820	-89.64000	0.05307	-0.09115	-0.09345	-0.02242	-0.00812	0.00391
1.12800	0.00094	0.00056	0.00068	0.00321	0.00000	0.00000	0.05307	-0.09115	-0.09345	-0.02242	-0.00812	0.00391
1.13000	0.00094	0.00056	0.00068	0.00321	-3.78840	-89.64000	0.05307	-0.09115	-0.09345	-0.02242	-0.00812	0.00391
1.13200	-0.00033	0.00155	0.00093	0.00303	-3.78840	-89.73000	0.01399	-0.11204	-0.08482	-0.01943	-0.01244	0.00185
1.13400	-0.00033	0.00155	0.00093	0.00303	-3.78840	-89.73000	0.01399	-0.11204	-0.08482	-0.01943	-0.01244	0.00185
1.13600	-0.00033	0.00155	0.00093	0.00303	-3.69820	-89.82000	0.01399	-0.11204	-0.08482	-0.01943	-0.01244	0.00185
1.13800	-0.00033	0.00155	0.00093	0.00303	-3.78840	-89.73000	0.01399	-0.11204	-0.08482	-0.01943	-0.01244	0.00185
1.14000	0.00050	0.00107	0.00072	0.00133	-3.69820	-89.73000	-0.00051	-0.10484	-0.08867	-0.02046	-0.00319	0.00247
1.14200	0.00050	0.00107	0.00072	0.00133	0.00000	0.00000	-0.00051	-0.10484	-0.08867	-0.02046	-0.00319	0.00247
1.14400	0.00050	0.00107	0.00072	0.00133	-3.87860	-89.82000	-0.00051	-0.10484	-0.08867	-0.02046	-0.00319	0.00247
1.14600	0.00050	0.00107	0.00072	0.00133	-3.78840	-89.73000	-0.00051	-0.10484	-0.08867	-0.02046	-0.00319	0.00247
1.14800	0.00098	0.00154	0.00066	0.00282	-3.87860	-89.64000	0.00257	-0.06574	-0.08636	-0.01491	-0.00329	-0.00103
1.15000	0.00098	0.00154	0.00066	0.00282	-3.96880	-89.55000	0.00257	-0.06574	-0.08636	-0.01491	-0.00329	-0.00103
1.15200	0.00098	0.00154	0.00066	0.00282	-3.87860	-89.64000	0.00257	-0.06574	-0.08636	-0.01491	-0.00329	-0.00103
1.15400	0.00098	0.00154	0.00066	0.00282	-3.87860	-89.73000	0.00257	-0.06574	-0.08636	-0.01491	-0.00329	-0.00103
1.15600	0.00060	0.00062	0.00087	0.00240	-3.78840	-89.64000	0.00257	-0.06574	-0.08636	-0.01491	-0.00329	-0.00103
1.15800	-0.00044	0.00249	0.00057	0.00190	-3.69820	-89.64000	-0.00298	-0.06523	-0.06863	-0.01131	-0.00185	-0.00278
1.16000	-0.00044	0.00249	0.00057	0.00190	-3.69820	-89.73000	-0.00298	-0.06523	-0.06863	-0.01131	-0.00185	-0.00278
1.16200	-0.00044	0.00249	0.00057	0.00190	-3.78840	-89.73000	-0.00298	-0.06523	-0.06863	-0.01131	-0.00185	-0.00278
1.16400	-0.00044	0.00249	0.00057	0.00190	0.00000	0.00000	-0.00298	-0.06523	-0.06863	-0.01131	-0.00185	-0.00278
1.16600	0.00044	0.00084	0.00092	0.00204	-3.78840	-89.82000	0.01728	-0.02305	-0.06631	-0.01141	-0.00267	0.00123
1.16800	0.00044	0.00084	0.00092	0.00204	-3.78840	-89.73000	0.01728	-0.02305	-0.06631	-0.01141	-0.00267	0.00123
1.17000	0.00044	0.00084	0.00092	0.00204	-3.78840	-89.73000	0.01728	-0.02305	-0.06631	-0.01141	-0.00267	0.00123
1.17200	0.00044	0.00084	0.00092	0.00204	-3.78840	-89.73000	0.01728	-0.02305	-0.06631	-0.01141	-0.00267	0.00123
1.17400	0.00018	0.00161	0.00084	0.00222	-4.05900	-89.73000	0.00854	-0.02397	-0.04133	-0.00566	-0.00637	0.00391
1.17600	0.00018	0.00161	0.00084	0.00222	-3.96880	-89.73000	0.00854	-0.02397	-0.04133	-0.00566	-0.00637	0.00391
1.17800	0.00018	0.00161	0.00084	0.00222	-3.87860	-89.91000	0.00854	-0.02397	-0.04133	-0.00566	-0.00637	0.00391
1.18000	0.00018	0.00161	0.00084	0.00222	-3.78840	-89.82000	0.00854	-0.02397	-0.04133	-0.00566	-0.00637	0.00391
1.18200	0.00149	0.00087	0.00090	0.00230	-3.78840	-89.91000	0.02427	-0.02623	-0.01342	-0.00257	-0.00576	0.00885
1.18400	0.00149	0.00087	0.00090	0.00230	-3.69820	-89.91000	0.02427	-0.02623	-0.01342	-0.00257	-0.00576	0.00885
1.18600	0.00149	0.00087	0.00090	0.00230	0.00000	0.00000	0.02427	-0.02623	-0.01342	-0.00257	-0.00576	0.00885
1.18800	0.00149	0.00087	0.00090	0.00230	-3.78840	-89.73000	0.02427	-0.02623	-0.01342	-0.00257	-0.00576	0.00885
1.19000	-0.00015	0.00226	0.00046	0.00195	-3.87860	-89.73000	0.00165	-0.03642	0.01080	-0.00545	-0.01213	0.00792
1.19200	-0.00015	0.00226	0.00046	0.00195	-3.78840	-89.73000	0.00165	-0.03642	0.01080	-0.00545	-0.01213	0.00792
1.19400	-0.00015	0.00226	0.00046	0.00195	-3.69820	-89.73000	0.00165	-0.03642	0.01080	-0.00545	-0.01213	0.00792
1.19600	-0.00015	0.00226	0.00046	0.00195	-3.69820	-89.82000	0.00165	-0.03642	0.01080	-0.00545	-0.01213	0.00792
1.19800	-0.00012	0.00108	0.00059	0.00256	-3.69820	-89.91000	-0.02983	-0.03230	0.01820	-0.00113	-0.00504	0.00669
1.20000	-0.00012	0.00108	0.00059	0.00256	-3.78840	-89.82000	-0.02983	-0.03230	0.01820	-0.00113	-0.00504	0.00669
1.20200	-0.00012	0.00108	0.00059	0.00256	-3.87860	-89.82000	-0.02983	-0.03230	0.01820	-0.00113	-0.00504	0.00669
1.20400	-0.00012	0.00108	0.00059	0.00256	-3.78840	-89.73000	-0.02983	-0.03230	0.01820	-0.00113	-0.00504	0.00669
1.20600	0.00027	0.00182	0.00074	0.00254	-3.69820	-89.73000	-0.02047	-0.01091	0.00324	0.00319	0.01069	0.00987
1.20800	0.00027	0.00182	0.00074	0.00254	0.00000	0.00000	-0.02047	-0.01091	0.00324	0.00319	0.01069	0.00987
1.21000	0.00027	0.00182	0.00074	0.00254	-3.78840	-89.82000	-0.02047	-0.01091	0.00324	0.00319	0.01069	0.00987
1.21200	0.00027	0.00182	0.00074	0.00254	-3.78840	-89.82000	-0.02047	-0.01091	0.00324	0.00319	0.01069	0.00987
1.21400	0.00126	0.00069	0.00069	0.00233	-3.78840	-89.73000	-0.04999	0.00494	0.02591	0.00514	0.00586	0.00761
1.21600	0.00126	0.00069	0.00069	0.00233	-3.78840	-89.82000	-0.04999	0.00494	0.02591	0.00514	0.00586	0.00761
1.21800	0.00126	0.00069	0.00069	0.00233	-3.78840	-89.91000	-0.04999	0.00494	0.02591	0.00514	0.00586	0.00761
1.22000	0.00126	0.00069	0.00069	0.00233	-3.78840	-89.91000	-0.04999	0.00494	0.02591	0.00514	0.00586	0.00761
1.22200	0.00020	0.00193	0.00048	0.00178	-3.87860	-89.91000	-0.01450	0.03014	0.02236	0.00967	0.00422	0.00226
1.22400	0.00020	0.00193	0.00048	0.00178	-3.96880	-90.00000	-0.01450	0.03014	0.02236	0.00967	0.00422	0.00226
1.22600	0.00020	0.00193	0.00048	0.00178	-3.96880	-89.91000	-0.01450	0.03014	0.02236	0.00967	0.00422	0.00226
1.22800	0.00020	0.00193	0.00048	0.00178	-3.96880	-89.91000	-0.01450	0.03014	0.02236	0.00967	0.00422	0.00226
1.23000	0.00001	0.00083	0.00096	0.00201	0.00000	0.00000	0.00309	0.03765	0.01249	0.00658	-0.00781	0.00000
1.23200	0.00001	0.00083	0.00096	0.00201	-3.96880	-89.82000	0.00309	0.03765	0.01249	0.00658	-0.00781	0.00000
1.23400	0.00001	0.00083	0.00096	0.00201	-3.96880	-89.73000	0.00309	0.03765	0.01249	0.00658	-0.00781	0.00000
1.23600	0.00001	0.00083	0.00096	0.00201	-3.87860	-89.73000	0.00309	0.03765	0.01249	0.00658	-0.00781	0.00000
1.23800	0.00050	0.00240	0.00072	0.00242	-3.87860	-89.73000	0.00555	0.02798	0.00108	0.01810	-0.00668	-0.00401
1.24000	0.00050	0.00240	0.00072	0.00242	-3.78840	-89.64000	0.00555	0.02798	0.00108	0.01810	-0.00668	-0.00401
1.24200	0.00050	0.00240	0.00072	0.00242	-3.60800	-89.73000	0.00555	0.02798	0.00108	0.01810	-0.00668	-0.00401
1.24400	0.00050	0.00240	0.00072	0.00242	-3.60800	-89.73000	0.00555	0.02798	0.00108	0.01810	-0.00668	-0.00401
1.24600	0.00144	0.00060	0.00119	0.00229	-3.60800	-89.73000	0.02499	0.02253	-0.02622	0.01306	-0.00781	-0.00113
1.24800	0.00144	0.00060	0.00119	0.00229	-3.69820	-89.64000	0.02499	0.02253	-0.02622	0.01306	-0.00781	-0.00113
1.25000	0.00144	0.00060	0.00119	0.00229	-3.69820	-89.64000	0.02499	0.02253	-0.02622	0.01306	-0.00781	-0.00113
1.25200	0.00144	0.00060	0.00119	0.00229	0.00000	0.00000	0.02499	0.02253	-0.02622	0.01306	-0.00781	-0.00113
1.25400	0.00018	0.00173	0.00059	0.00219	-3.78840	-89.73000	0.02294	-0.01008	-0.02776	0.01111	-0.01234	-0.00473
1.25600	0.00018	0.00173	0.00059	0.00219	-3.78840	-89.64000	0.02294	-0.01008	-0.02776	0.01111	-0.01234	-0.00473
1.25800	0.00018	0.00173	0.00059	0.00219	-3.87860	-89.64000	0.02294	-0.01008	-0.02776	0.01111	-0.01234	-0.00473
1.26000	0.00018	0.00173	0.00059	0.00219	-3.87860	-89.82000	0.02294	-0.01008	-0.02776	0.01111	-0.01234	-0.00473
1.26200	-0.00060	0.00039	0.00125	0.00148	-3.87860	-89.82000	0.03693	-0.00453	-0.03640	0.00874	-0.00720	-0.00062
1.26400	-0.00060	0.00039	0.00125	0.00148	-3.87860	-89.82000	0.03693	-0.00453	-0.03640	0.00874	-0.00720	-0.00062
1.26600	-0.00060	0.00039	0.00125	0.00148	-3.96880	-89.82000	0.03693	-0.00453	-0.03640	0.00874	-0.00720	-0.00062
1.26800	-0.00060	0.00039	0.00125	0.00148	-3.87860	-89.91000	0.03693	-0.00453	-0.03640	0.00874	-0.00720	-0.00062
1.27000	-0.00033	0.00204	0.00061	0.00135	-3.87860	-90.00000	0.03096	0.00175	-0.05999	0.01316	-0.01018	-0.00267
1.27200	-0.00033	0.00204	0.00061	0.00135	-3.87860	-89.91000	0.03096	0.00175	-0.05999	0.01316	-0.01018	-0.00267
1.27400	-0.00033	0.00204	0.00061	0.00135	-3.87860	-89.82000	0.03096	0.00175	-0.05999	0.01316	-0.01018	-0.00267
1.27600	-0.00033	0.00204	0.00061	0.00135	-3.78840	-89.82000	0.03096	0.00175	-0.05999	0.01316	-0.01018	-0.00267
1.27800	0.00210	0.00083	0.00062	0.00188	-3.78840	-89.82000	0.02746	0.01039	-0.07988	0.01059	-0.01090	-0.00309
1.28000	0.00210	0.00083	0.00062	0.00188	-3.78840	-89.91000	0.02746	0.01039	-0.07988	0.01059	-0.01090	-0.00309
1.28200	0.00210	0.00083	0.00062	0.00188	-3.78840	-89.82000	0.02746	0.01039	-0.07988	0.01059	-0.01090	-0.00309
1.28400	0.00210	0.00083	0.00062	0.00188	-3.78840	-89.73000	0.02746	0.01039	-0.07988	0.01059	-0.01090	-0.00309
1.28600	0.00029	0.00169	0.00118	0.00215	-3.69820	-89.73000	0.04042	0.03642	-0.10024	0.00977	-0.01285	0.00833
1.28800	0.00029	0.00169	0.00118	0.00215	0.00000	0.00000	0.04042	0.03642	-0.10024	0.00977	-0.01285	0.00833
1.29000	0.00029	0.00169	0.00118	0.00215	-3.69820	-89.64000	0.04042	0.03642	-0.10024	0.00977	-0.01285	0.00833
1.29200	0.00029	0.00169	0.00118	0.00215	-3.69820	-89.64000	0.04042	0.03642	-0.10024	0.00977	-0.01285	0.00833
1.29400	0.00009	0.00071	0.00036	0.00207	-3.69820	-89.64000	0.01728	0.02171	-0.10595	0.01450	-0.01316	0.00545
1.29600	0.00009	0.00071	0.00036	0.00207	-3.78840	-89.64000	0.01728	0.02171	-0.10595	0.01450	-0.01316	0.00545
1.29800	0.00009	0.00071	0.00036	0.00207	-3.87860	-89.73000	0.01728	0.02171	-0.10595	0.01450	-0.01316	0.00545
1.30000	0.00009	0.00071	0.00036	0.00207	-3.69820	-89.73000	0.01728	0.02171	-0.10595	0.01450	-0.01316	0.00545
1.30200	-0.00000	0.00185	0.00069	0.00146	-3.69820	-89.82000	0.01481	0.03210	-0.11134	0.01162	-0.00668	0.00802
1.30400	-0.00000	0.00185	0.00069	0.00146	-3.69820	-89.82000	0.01481	0.03210	-0.11134	0.01162	-0.00668	0.00802
1.30600	-0.00000	0.00185	0.00069	0.00146	-3.69820	-89.82000	0.01481	0.03210	-0.11134	0.01162	-0.00668	0.00802
1.30800	-0.00000	0.00185	0.00069	0.00146	-3.87860	-89.73000	0.01481	0.03210	-0.11134	0.01162	-0.00668	0.00802
1.31000	0.00173	0.00115	0.00082	0.00211	0.00000	0.00000	0.01245	0.01852	-0.10595	0.01491	-0.01008	0.00267
1.31200	0.00173	0.00115	0.00082	0.00211	-3.87860	-89.73000	0.01245	0.01852	-0.10595	0.01491	-0.01008	0.00267
1.31400	0.00173	0.00115	0.00082	0.00211	-3.87860	-89.64000	0.01245	0.01852	-0.10595	0.01491	-0.01008	0.00267
1.31600	0.00173	0.00115	0.00082	0.00211	-3.78840	-89.64000	0.01245	0.01852	-0.10595	0.01491	-0.01008	0.00267
1.31800	0.00006	0.00178	0.00090	0.00306	-3.78840	-89.73000	-0.00504	-0.01070	-0.08698	0.01481	-0.00308	-0.00134
1.32000	0.00006	0.00178	0.00090	0.00306	-3.78840	-89.82000	-0.00504	-0.01070	-0.08698	0.01481	-0.00308	-0.00134
1.32200	0.00006	0.00178	0.00090	0.00306	-3.69820	-89.82000	-0.00504	-0.01070	-0.08698	0.01481	-0.00308	-0.00134
1.32400	0.00006	0.00178	0.00090	0.00306	-3.60800	-89.82000	-0.00504	-0.01070	-0.08698	0.01481	-0.00308	-0.00134
1.32600	0.00060	0.00068	0.00085	0.00294	-3.69820	-89.82000	0.01347	-0.00134	-0.09253	0.01203	-0.00144	-0.00185
1.32800	0.00035	0.00319	0.00051	0.00275	-3.78840	-89.82000	0.01347	-0.00134	-0.09253	0.01203	-0.00144	-0.00185
1.33000	0.00035	0.00319	0.00051	0.00275	-3.78840	-89.82000	0.01347	-0.00134	-0.09253	0.01203	-0.00144	-0.00185
1.33200	0.00035	0.00319	0.00051	0.00275	0.00000	0.00000	0.01347	-0.00134	-0.09253	0.01203	-0.00144	-0.00185
1.33400	0.00035	0.00319	0.00051	0.00275	-3.78840	-89.82000	0.01347	-0.00134	-0.09253	0.01203	-0.00144	-0.00185
1.33600	0.00149	0.00115	0.00105	0.00206	-3.78840	-89.91000	-0.00103	-0.01265	-0.05768	0.00823	-0.00411	0.00000
1.33800	0.00149	0.00115	0.00105	0.00206	-3.78840	-89.91000	-0.00103	-0.01265	-0.05768	0.00823	-0.00411	0.00000
1.34000	0.00149	0.00115	0.00105	0.00206	-3.87860	-89.82000	-0.00103	-0.01265	-0.05768	0.00823	-0.00411	0.00000
1.34200	0.00149	0.00115	0.00105	0.00206	-3.87860	-89.73000	-0.00103	-0.01265	-0.05768	0.00823	-0.00411	0.00000
1.34400	0.00100	0.00106	0.00101	0.00132	-3.78840	-89.73000	0.01553	0.02294	-0.04719	0.01090	-0.00154	-0.00195
1.34600	0.00100	0.00106	0.00101	0.00132	0.00000	0.00000	0.01553	0.02294	-0.04719	0.01090	-0.00154	-0.00195
1.34800	0.00100	0.00106	0.00101	0.00132	-3.78840	-89.73000	0.01553	0.02294	-0.04719	0.01090	-0.00154	-0.00195
1.35000	0.00100	0.00106	0.00101	0.00132	-3.78840	-89.73000	0.01553	0.02294	-0.04719	0.01090	-0.00154	-0.00195
1.35200	0.00030	0.00132	0.00101	0.00197	-3.87860	-89.82000	-0.00031	0.03189	-0.02699	0.01141	-0.01028	-0.00010
1.35400	0.00030	0.00132	0.00101	0.00197	-3.87860	-89.82000	-0.00031	0.03189	-0.02699	0.01141	-0.01028	-0.00010
1.35600	0.00030	0.00132	0.00101	0.00197	-3.78840	-89.82000	-0.00031	0.03189	-0.02699	0.01141	-0.01028	-0.00010
1.35800	0.00030	0.00132	0.00101	0.00197	-3.78840	-89.73000	-0.00031	0.03189	-0.02699	0.01141	-0.01028	-0.00010
1.36000	0.00010	0.00152	0.00068	0.00344	-3.78840	-89.73000	-0.00031	0.03189	-0.02699	0.00864	0.00123	0.00329
1.36200	0.00005	0.00157	0.00068	0.00354	-3.78840	-89.73000	-0.01090	0.03086	-0.01727	0.00864	0.00123	0.00329
1.36400	0.00005	0.00157	0.00068	0.00354	-3.78840	-89.73000	-0.01090	0.03086	-0.01727	0.00864	0.00123	0.00329
1.36600	0.00005	0.00157	0.00068	0.00354	-3.78840	-89.82000	-0.01090	0.03086	-0.01727	0.00864	0.00123	0.00329
1.36800	0.00005	0.00157	0.00068	0.00354	0.00000	0.00000	-0.01090	0.03086	-0.01727	0.00864	0.00123	0.00329
1.37000	0.00154	0.00061	0.00105	0.00276	-3.96880	-89.82000	-0.03898	0.01070	-0.02390	0.00792	0.00493	0.00267
1.37200	0.00154	0.00061	0.00105	0.00276	-3.87860	-89.73000	-0.03898	0.01070	-0.02390	0.00792	0.00493	0.00267
1.37400	0.00154	0.00061	0.00105	0.00276	-3.78840	-89.73000	-0.03898	0.01070	-0.02390	0.00792	0.00493	0.00267
1.37600	0.00154	0.00061	0.00105	0.00276	-3.78840	-89.73000	-0.03898	0.01070	-0.02390	0.00792	0.00493	0.00267
1.37800	0.00066	0.00184	0.00055	0.00150	-3.87860	-89.73000	-0.07581	-0.00658	-0.01388	0.00422	0.01141	-0.00226
1.38000	0.00066	0.00184	0.00055	0.00150	-3.78840	-89.64000	-0.07581	-0.00658	-0.01388	0.00422	0.01141	-0.00226
1.38200	0.00066	0.00184	0.00055	0.00150	-3.69820	-89.64000	-0.07581	-0.00658	-0.01388	0.00422	0.01141	-0.00226
1.38400	0.00066	0.00184	0.00055	0.00150	-3.78840	-89.73000	-0.07581	-0.00658	-0.01388	0.00422	0.01141	-0.00226
1.38600	-0.00001	0.00083	0.00060	0.00127	-3.69820	-89.73000	-0.06110	0.00082	-0.00894	0.00514	0.01306	0.00113
1.38800	-0.00001	0.00083	0.00060	0.00127	-3.69820	-89.82000	-0.06110	0.00082	-0.00894	0.00514	0.01306	0.00113
1.39000	-0.00001	0.00083	0.00060	0.00127	0.00000	0.00000	-0.06110	0.00082	-0.00894	0.00514	0.01306	0.00113
1.39200	-0.00001	0.00083	0.00060	0.00127	-3.87860	-89.82000	-0.06110	0.00082	-0.00894	0.00514	0.01306	0.00113
1.39400	0.00020	0.00135	0.00093	0.00198	-3.96880	-89.82000	-0.06881	-0.03560	0.00555	-0.00123	0.01049	0.00689
1.39600	0.00020	0.00135	0.00093	0.00198	-3.78840	-89.73000	-0.06881	-0.03560	0.00555	-0.00123	0.01049	0.00689
1.39800	0.00020	0.00135	0.00093	0.00198	-3.78840	-89.82000	-0.06881	-0.03560	0.00555	-0.00123	0.01049	0.00689
1.40000	0.00020	0.00135	0.00093	0.00198	-3.78840	-89.82000	-0.06881	-0.03560	0.00555	-0.00123	0.01049	0.00689
1.40200	0.00162	0.00088	0.00076	0.00275	-3.78840	-89.82000	-0.03579	-0.01296	-0.00447	0.00206	0.00401	0.00411
1.40400	0.00162	0.00088	0.00076	0.00275	-3.69820	-89.82000	-0.03579	-0.01296	-0.00447	0.00206	0.00401	0.00411
1.40600	0.00162	0.00088	0.00076	0.00275	-3.78840	-89.82000	-0.03579	-0.01296	-0.00447	0.00206	0.00401	0.00411
1.40800	0.00162	0.00088	0.00076	0.00275	-3.78840	-89.73000	-0.03579	-0.01296	-0.00447	0.00206	0.00401	0.00411
1.41000	0.00074	0.00158	0.00095	0.00265	-3.87860	-89.82000	-0.00329	-0.01193	-0.01696	-0.00123	-0.00175	0.00247
1.41200	0.00074	0.00158	0.00095	0.00265	0.00000	0.00000	-0.00329	-0.01193	-0.01696	-0.00123	-0.00175	0.00247
1.41400	0.00074	0.00158	0.00095	0.00265	-3.78840	-89.91000	-0.00329	-0.01193	-0.01696	-0.00123	-0.00175	0.00247
1.41600	0.00074	0.00158	0.00095	0.00265	-3.78840	-89.91000	-0.00329	-0.01193	-0.01696	-0.00123	-0.00175	0.00247
1.41800	-0.00033	0.00068	0.00119	0.00216	-3.78840	-89.82000	0.01368	-0.01204	-0.03007	-0.00463	-0.01008	0.00483
1.42000	-0.00033	0.00068	0.00119	0.00216	-3.78840	-89.82000	0.01368	-0.01204	-0.03007	-0.00463	-0.01008	0.00483
1.42200	-0.00033	0.00068	0.00119	0.00216	-3.78840	-89.73000	0.01368	-0.01204	-0.03007	-0.00463	-0.01008	0.00483
1.42400	-0.00033	0.00068	0.00119	0.00216	-3.78840	-89.82000	0.01368	-0.01204	-0.03007	-0.00463	-0.01008	0.00483
1.42600	0.00028	0.00251	0.00063	0.00128	0.00000	0.00000	0.05832	-0.00710	-0.04179	-0.00298	-0.01285	0.00082
1.42800	0.00028	0.00251	0.00063	0.00128	-3.69820	-89.82000	0.05832	-0.00710	-0.04179	-0.00298	-0.01285	0.00082
1.43000	0.00028	0.00251	0.00063	0.00128	-3.78840	-89.73000	0.05832	-0.00710	-0.04179	-0.00298	-0.01285	0.00082
1.43200	0.00028	0.00251	0.00063	0.00128	-3.69820	-89.82000	0.05832	-0.00710	-0.04179	-0.00298	-0.01285	0.00082
1.43400	0.00144	0.00055	0.00096	0.00116	-3.69820	-89.73000	0.05410	-0.02243	-0.05459	-0.00360	-0.02272	0.00062
1.43600	0.00144	0.00055	0.00096	0.00116	-3.69820	-89.82000	0.05410	-0.02243	-0.05459	-0.00360	-0.02272	0.00062
1.43800	0.00144	0.00055	0.00096	0.00116	-3.78840	-89.82000	0.05410	-0.02243	-0.05459	-0.00360	-0.02272	0.00062
1.44000	0.00144	0.00055	0.00096	0.00116	-3.69820	-89.73000	0.05410	-0.02243	-0.05459	-0.00360	-0.02272	0.00062
1.44200	0.00030	0.00215	0.00096	0.00161	-3.60800	-89.73000	0.06758	-0.03477	-0.05968	-0.00062	-0.01789	-0.00021
1.44400	0.00030	0.00215	0.00096	0.00161	-3.60800	-89.82000	0.06758	-0.03477	-0.05968	-0.00062	-0.01789	-0.00021
1.44600	0.00030	0.00215	0.00096	0.00161	-3.69820	-89.82000	0.06758	-0.03477	-0.05968	-0.00062	-0.01789	-0.00021
1.44800	0.00030	0.00215	0.00096	0.00161	0.00000	0.00000	0.06758	-0.03477	-0.05968	-0.00062	-0.01789	-0.00021
1.45000	0.00024	0.00069	0.00079	0.00273	-3.87860	-89.91000	0.06912	-0.04156	-0.08574	-0.00915	-0.02046	-0.00525
1.45200	0.00024	0.00069	0.00079	0.00273	-3.78840	-89.91000	0.06912	-0.04156	-0.08574	-0.00915	-0.02046	-0.00525
1.45400	0.00024	0.00069	0.00079	0.00273	-3.78840	-89.91000	0.06912	-0.04156	-0.08574	-0.00915	-0.02046	-0.00525
1.45600	0.00024	0.00069	0.00079	0.00273	-3.69820	-89.82000	0.06912	-0.04156	-0.08574	-0.00915	-0.02046	-0.00525
1.45800	-0.00016	0.00167	0.00107	0.00269	-3.78840	-89.73000	0.06171	-0.07716	-0.05691	-0.01470	-0.01614	-0.00237
1.46000	-0.00016	0.00167	0.00107	0.00269	-3.69820	-89.73000	0.06171	-0.07716	-0.05691	-0.01470	-0.01614	-0.00237
1.46200	-0.00016	0.00167	0.00107	0.00269	-3.69820	-89.73000	0.06171	-0.07716	-0.05691	-0.01470	-0.01614	-0.00237
1.46400	-0.00016	0.00167	0.00107	0.00269	-3.69820	-89.73000	0.06171	-0.07716	-0.05691	-0.01470	-0.01614	-0.00237
1.46600	0.00151	0.00095	0.00088	0.00197	-3.78840	-89.82000	0.06171	-0.07716	-0.05691	-0.01470	-0.01614	-0.00237
1.46800	0.00151	0.00095	0.00088	0.00197	-3.87860	-89.82000	0.07869	-0.05988	-0.06523	-0.01121	-0.02077	-0.00216
1.47000	0.00074	0.00290	0.00035	0.00111	-3.87860	-89.82000	0.07869	-0.05988	-0.06523	-0.01121	-0.02077	-0.00216
1.47200	0.00074	0.00290	0.00035	0.00111	-3.87860	-89.73000	0.07869	-0.05988	-0.06523	-0.01121	-0.02077	-0.00216
1.47400	0.00074	0.00290	0.00035	0.00111	-3.78840	-89.73000	0.07869	-0.05988	-0.06523	-0.01121	-0.02077	-0.00216
1.47600	0.00033	0.00100	0.00102	0.00217	-3.69820	-89.73000	0.06377	-0.05082	-0.04657	-0.01234	-0.02221	0.00113
1.47800	0.00033	0.00100	0.00102	0.00217	-3.87860	-89.73000	0.06377	-0.05082	-0.04657	-0.01234	-0.02221	0.00113
1.48000	0.00033	0.00100	0.00102	0.00217	-3.78840	-89.82000	0.06377	-0.05082	-0.04657	-0.01234	-0.02221	0.00113
1.48200	0.00033	0.00100	0.00102	0.00217	-3.78840	-89.91000	0.06377	-0.05082	-0.04657	-0.01234	-0.02221	0.00113
1.48400	0.00004	0.00044	0.00059	0.00252	0.00000	0.00000	0.07303	-0.05700	-0.03809	-0.01337	-0.01964	0.00370
1.48600	0.00004	0.00044	0.00059	0.00252	-3.78840	-90.00000	0.07303	-0.05700	-0.03809	-0.01337	-0.01964	0.00370
1.48800	0.00004	0.00044	0.00059	0.00252	-3.78840	-90.00000	0.07303	-0.05700	-0.03809	-0.01337	-0.01964	0.00370
1.49000	0.00004	0.00044	0.00059	0.00252	-3.69820	-90.09000	0.07303	-0.05700	-0.03809	-0.01337	-0.01964	0.00370
1.49200	0.00077	0.00189	0.00063	0.00195	-3.69820	-90.00000	0.03970	-0.07058	-0.01928	-0.02057	-0.01275	0.00247
1.49400	0.00077	0.00189	0.00063	0.00195	-3.69820	-89.91000	0.03970	-0.07058	-0.01928	-0.02057	-0.01275	0.00247
1.49600	0.00077	0.00189	0.00063	0.00195	-3.69820	-89.73000	0.03970	-0.07058	-0.01928	-0.02057	-0.01275	0.00247
1.49800	0.00077	0.00189	0.00063	0.00195	-3.78840	-89.73000	0.03970	-0.07058	-0.01928	-0.02057	-0.01275	0.00247
1.50000	0.00127	0.00104	0.00090	0.00265	-3.87860	-89.64000	0.00113	-0.06049	-0.02390	-0.01820	0.00041	0.00195
1.50200	0.00127	0.00104	0.00090	0.00265	-3.69820	-89.64000	0.00113	-0.06049	-0.02390	-0.01820	0.00041	0.00195
1.50400	0.00127	0.00104	0.00090	0.00265	-3.60800	-89.64000	0.00113	-0.06049	-0.02390	-0.01820	0.00041	0.00195
1.50600	0.00127	0.00104	0.00090	0.00265	0.00000	0.00000	0.00113	-0.06049	-0.02390	-0.01820	0.00041	0.00195
1.50800	-0.00000	0.00112	0.00071	0.00244	-3.69820	-89.82000	-0.00257	-0.06605	-0.01218	-0.01779	0.00699	0.00463
1.51000	-0.00000	0.00112	0.00071	0.00244	-3.78840	-89.73000	-0.00257	-0.06605	-0.01218	-0.01779	0.00699	0.00463
1.51200	-0.00000	0.00112	0.00071	0.00244	-3.78840	-89.82000	-0.00257	-0.06605	-0.01218	-0.01779	0.00699	0.00463
1.51400	-0.00000	0.00112	0.00071	0.00244	-3.78840	-89.73000	-0.00257	-0.06605	-0.01218	-0.01779	0.00699	0.00463
1.51600	0.00056	0.00073	0.00103	0.00212	-3.87860	-89.73000	-0.00257	-0.06605	-0.01218	-0.01779	0.00699	0.00463
1.51800	-0.00073	0.00206	0.00071	0.00161	-3.87860	-89.64000	-0.04670	-0.07346	0.01203	-0.02273	0.00915	0.00638
1.52000	-0.00073	0.00206	0.00071	0.00161	-3.87860	-89.64000	-0.04670	-0.07346	0.01203	-0.02273	0.00915	0.00638
1.52200	-0.00073	0.00206	0.00071	0.00161	-3.87860	-89.64000	-0.04670	-0.07346	0.01203	-0.02273	0.00915	0.00638
1.52400	-0.00073	0.00206	0.00071	0.00161	-3.87860	-89.64000	-0.04670	-0.07346	0.01203	-0.02273	0.00915	0.00638
1.52600	0.00157	0.00072	0.00087	0.00170	-3.87860	-89.64000	-0.04670	-0.07346	0.01203	-0.02242	0.00751	0.00309
1.52800	0.00101	0.00018	0.00091	0.00317	0.00000	0.00000	-0.02273	-0.06862	-0.01002	-0.02242	0.00751	0.00309
1.53000	0.00101	0.00018	0.00091	0.00317	-3.87860	-89.73000	-0.02273	-0.06862	-0.01002	-0.02242	0.00751	0.00309
1.53200	0.00101	0.00018	0.00091	0.00317	-3.96880	-89.73000	-0.02273	-0.06862	-0.01002	-0.02242	0.00751	0.00309
1.53400	0.00101	0.00018	0.00091	0.00317	-3.87860	-89.73000	-0.02273	-0.06862	-0.01002	-0.02242	0.00751	0.00309
1.53600	-0.00007	0.00241	0.00079	0.00263	-3.87860	-89.82000	-0.02057	-0.07017	-0.00062	-0.01964	0.00545	0.00453
1.53800	-0.00007	0.00241	0.00079	0.00263	-3.96880	-89.91000	-0.02057	-0.07017	-0.00062	-0.01964	0.00545	0.00453
1.54000	-0.00007	0.00241	0.00079	0.00263	-3.78840	-89.91000	-0.02057	-0.07017	-0.00062	-0.01964	0.00545	0.00453
1.54200	-0.00007	0.00241	0.00079	0.00263	-3.69820	-89.91000	-0.02057	-0.07017	-0.00062	-0.01964	0.00545	0.00453
1.54400	-0.00010	0.00063	0.00072	0.00207	-3.69820	-89.91000	-0.01296	-0.04712	-0.01064	-0.01378	0.00422	0.00113
1.54600	-0.00010	0.00063	0.00072	0.00207	-3.78840	-89.82000	-0.01296	-0.04712	-0.01064	-0.01378	0.00422	0.00113
1.54800	-0.00010	0.00063	0.00072	0.00207	-3.78840	-89.82000	-0.01296	-0.04712	-0.01064	-0.01378	0.00422	0.00113
1.55000	-0.00010	0.00063	0.00072	0.00207	0.00000	0.00000	-0.01296	-0.04712	-0.01064	-0.01378	0.00422	0.00113
1.55200	0.00038	0.00173	0.00085	0.00296	-3.78840	-89.91000	-0.00370	-0.08004	-0.01804	-0.01974	0.00586	0.00278
1.55400	0.00145	0.00091	0.00090	0.00325	-3.87860	-89.82000	-0.00370	-0.08004	-0.01804	-0.01974	0.00586	0.00278
1.55600	0.00145	0.00091	0.00090	0.00325	-3.87860	-89.73000	-0.00370	-0.08004	-0.01804	-0.01974	0.00586	0.00278
1.55800	0.00145	0.00091	0.00090	0.00325	-3.87860	-89.73000	-0.00370	-0.08004	-0.01804	-0.01974	0.00586	0.00278
1.56000	0.00145	0.00091	0.00090	0.00325	-3.78840	-89.64000	-0.00370	-0.08004	-0.01804	-0.01974	0.00586	0.00278
1.56200	0.00098	0.00099	0.00068	0.00124	-3.78840	-89.73000	-0.01183	-0.08714	-0.02822	-0.02252	0.00216	-0.00123
1.56400	0.00098	0.00099	0.00068	0.00124	-3.78840	-89.82000	-0.01183	-0.08714	-0.02822	-0.02252	0.00216	-0.00123
1.56600	0.00098	0.00099	0.00068	0.00124	-3.87860	-89.82000	-0.01183	-0.08714	-0.02822	-0.02252	0.00216	-0.00123
1.56800	0.00098	0.00099	0.00068	0.00124	-3.87860	-89.91000	-0.01183	-0.08714	-0.02822	-0.02252	0.00216	-0.00123
1.57000	0.00026	0.00187	0.00068	0.00217	-3.87860	-89.91000	0.00473	-0.09167	-0.05506	-0.02015	0.00216	-0.00247
1.57200	0.00026	0.00187	0.00068	0.00217	0.00000	0.00000	0.00473	-0.09167	-0.05506	-0.02015	0.00216	-0.00247
1.57400	0.00026	0.00187	0.00068	0.00217	-3.96880	-89.73000	0.00473	-0.09167	-0.05506	-0.02015	0.00216	-0.00247
1.57600	0.00026	0.00187	0.00068	0.00217	-3.78840	-89.73000	0.00473	-0.09167	-0.05506	-0.02015	0.00216	-0.00247
1.57800	-0.00062	0.00087	0.00076	0.00253	-3.78840	-89.73000	0.00936	-0.09753	-0.07495	-0.01964	-0.00298	-0.00134
1.58000	-0.00062	0.00087	0.00076	0.00253	-3.87860	-89.73000	0.00936	-0.09753	-0.07495	-0.01964	-0.00298	-0.00134
1.58200	-0.00062	0.00087	0.00076	0.00253	-3.87860	-89.73000	0.00936	-0.09753	-0.07495	-0.01964	-0.00298	-0.00134
1.58400	-0.00062	0.00087	0.00076	0.00253	-3.87860	-89.64000	0.00936	-0.09753	-0.07495	-0.01964	-0.00298	-0.00134
1.58600	0.00110	0.00179	0.00066	0.00236	-3.78840	-89.73000	0.04022	-0.05833	-0.07233	-0.01285	-0.00925	0.00093
1.58800	0.00110	0.00179	0.00066	0.00236	-3.96880	-89.73000	0.04022	-0.05833	-0.07233	-0.01285	-0.00925	0.00093
1.59000	0.00110	0.00179	0.00066	0.00236	-3.87860	-89.73000	0.04022	-0.05833	-0.07233	-0.01285	-0.00925	0.00093
1.59200	0.00110	0.00179	0.00066	0.00236	-3.96880	-89.73000	0.04022	-0.05833	-0.07233	-0.01285	-0.00925	0.00093
1.59400	0.00062	0.00096	0.00074	0.00137	-3.87860	-89.64000	0.06521	-0.06914	-0.07125	-0.01224	-0.02766	0.00062
1.59600	0.00062	0.00096	0.00074	0.00137	-3.78840	-89.73000	0.06521	-0.06914	-0.07125	-0.01224	-0.02766	0.00062
1.59800	0.00062	0.00096	0.00074	0.00137	-3.87860	-89.82000	0.06521	-0.06914	-0.07125	-0.01224	-0.02766	0.00062
1.60000	0.00062	0.00096	0.00074	0.00137	-3.87860	-89.82000	0.06521	-0.06914	-0.07125	-0.01224	-0.02766	0.00062
1.60200	-0.00021	0.00143	0.00102	0.00228	-3.87860	-89.73000	0.08506	-0.06451	-0.08867	-0.01625	-0.02910	0.00370
1.60400	-0.00021	0.00143	0.00102	0.00228	-3.78840	-89.64000	0.08506	-0.06451	-0.08867	-0.01625	-0.02910	0.00370
1.60600	-0.00021	0.00143	0.00102	0.00228	-3.69820	-89.73000	0.08506	-0.06451	-0.08867	-0.01625	-0.02910	0.00370
1.60800	-0.00021	0.00143	0.00102	0.00228	0.00000	0.00000	0.08506	-0.06451	-0.08867	-0.01625	-0.02910	0.00370
1.61000	0.00004	0.00104	0.00098	0.00262	-3.69820	-89.73000	0.10543	-0.06430	-0.09145	-0.01553	-0.02786	0.00401
1.61200	0.00004	0.00104	0.00098	0.00262	-3.78840	-89.82000	0.10543	-0.06430	-0.09145	-0.01553	-0.02786	0.00401
1.61400	0.00004	0.00104	0.00098	0.00262	-3.87860	-89.82000	0.10543	-0.06430	-0.09145	-0.01553	-0.02786	0.00401
1.61600	0.00004	0.00104	0.00098	0.00262	-3.78840	-89.82000	0.10543	-0.06430	-0.09145	-0.01553	-0.02786	0.00401
1.61800	0.00121	0.00158	0.00097	0.00231	-3.78840	-89.82000	0.08116	-0.08765	-0.08389	-0.01686	-0.03115	0.00237
1.62000	0.00121	0.00158	0.00097	0.00231	-3.78840	-89.73000	0.08116	-0.08765	-0.08389	-0.01686	-0.03115	0.00237
1.62200	0.00121	0.00158	0.00097	0.00231	-3.60800	-89.73000	0.08116	-0.08765	-0.08389	-0.01686	-0.03115	0.00237
1.62400	0.00121	0.00158	0.00097	0.00231	-3.60800	-89.73000	0.08116	-0.08765	-0.08389	-0.01686	-0.03115	0.00237
1.62600	0.00011	0.00155	0.00086	0.00142	-3.69820	-89.73000	0.07756	-0.06903	-0.07510	-0.01398	-0.02632	0.00298
1.62800	0.00011	0.00155	0.00086	0.00142	-3.69820	-89.73000	0.07756	-0.06903	-0.07510	-0.01398	-0.02632	0.00298
1.63000	0.00011	0.00155	0.00086	0.00142	-3.78840	-89.82000	0.07756	-0.06903	-0.07510	-0.01398	-0.02632	0.00298
1.63200	0.00011	0.00155	0.00086	0.00142	-3.78840	-89.82000	0.07756	-0.06903	-0.07510	-0.01398	-0.02632	0.00298
1.63400	-0.00018	0.00093	0.00091	0.00188	-3.87860	-89.91000	0.04947	-0.08158	-0.04997	-0.01728	-0.01984	0.00278
1.63600	-0.00018	0.00093	0.00091	0.00188	-3.69820	-89.73000	0.04947	-0.08158	-0.04997	-0.01728	-0.01984	0.00278
1.63800	-0.00018	0.00093	0.00091	0.00188	-3.69820	-89.73000	0.04947	-0.08158	-0.04997	-0.01728	-0.01984	0.00278
1.64000	-0.00018	0.00093	0.00091	0.00188	-3.60800	-89.73000	0.04947	-0.08158	-0.04997	-0.01728	-0.01984	0.00278
1.64200	-0.00006	0.00137	0.00100	0.00177	-3.69820	-89.64000	0.02345	-0.08447	-0.05120	-0.01707	-0.00853	0.00093
1.64400	-0.00006	0.00137	0.00100	0.00177	-3.69820	-89.64000	0.02345	-0.08447	-0.05120	-0.01707	-0.00853	0.00093
1.64600	-0.00006	0.00137	0.00100	0.00177	-3.69820	-89.73000	0.02345	-0.08447	-0.05120	-0.01707	-0.00853	0.00093
1.64800	-0.00006	0.00137	0.00100	0.00177	-3.69820	-89.73000	0.02345	-0.08447	-0.05120	-0.01707	-0.00853	0.00093
1.65000	0.00121	0.00078	0.00101	0.00266	0.00000	0.00000	0.01954	-0.06440	-0.04642	-0.01594	0.00175	0.00165
1.65200	0.00121	0.00078	0.00101	0.00266	-3.69820	-89.73000	0.01954	-0.06440	-0.04642	-0.01594	0.00175	0.00165
1.65400	0.00121	0.00078	0.00101	0.00266	-3.78840	-89.73000	0.01954	-0.06440	-0.04642	-0.01594	0.00175	0.00165
1.65600	0.00121	0.00078	0.00101	0.00266	-3.78840	-89.64000	0.01954	-0.06440	-0.04642	-0.01594	0.00175	0.00165
1.65800	0.00032	0.00107	0.00093	0.00285	-3.96880	-89.55000	-0.01779	-0.05566	-0.01974	-0.00956	-0.00473	0.00206
1.66000	0.00032	0.00107	0.00093	0.00285	-3.78840	-89.73000	-0.01779	-0.05566	-0.01974	-0.00956	-0.00473	0.00206
1.66200	0.00032	0.00107	0.00093	0.00285	-3.78840	-89.73000	-0.01779	-0.05566	-0.01974	-0.00956	-0.00473	0.00206
1.66400	0.00032	0.00107	0.00093	0.00285	-3.87860	-89.82000	-0.01779	-0.05566	-0.01974	-0.00956	-0.00473	0.00206
1.66600	-0.00024	0.00126	0.00081	0.00208	-3.87860	-89.82000	-0.00165	-0.00463	-0.00910	-0.00237	-0.00195	-0.00391
1.66800	-0.00024	0.00126	0.00081	0.00208	-3.96880	-89.82000	-0.00165	-0.00463	-0.00910	-0.00237	-0.00195	-0.00391
1.67000	-0.00024	0.00126	0.00081	0.00208	0.00000	0.00000	-0.00165	-0.00463	-0.00910	-0.00237	-0.00195	-0.00391
1.67200	-0.00024	0.00126	0.00081	0.00208	0.00000	0.00000	-0.00165	-0.00463	-0.00910	-0.00237	-0.00195	-0.00391
1.67400	-0.00026	0.00156	0.00108	0.00216	-3.78840	-89.73000	-0.00617	-0.00844	-0.00632	-0.00380	-0.00514	0.00329
1.67600	-0.00026	0.00156	0.00108	0.00216	-3.69820	-89.82000	-0.00617	-0.00844	-0.00632	-0.00380	-0.00514	0.00329
1.67800	-0.00026	0.00156	0.00108	0.00216	-3.78840	-89.91000	-0.00617	-0.00844	-0.00632	-0.00380	-0.00514	0.00329
1.68000	-0.00026	0.00156	0.00108	0.00216	-3.78840	-89.91000	-0.00617	-0.00844	-0.00632	-0.00380	-0.00514	0.00329
1.68200	0.00146	0.00072	0.00096	0.00122	-3.78840	-89.91000	-0.00802	-0.02263	0.01989	-0.00380	-0.00401	0.00051
1.68400	0.00146	0.00072	0.00096	0.00122	-3.78840	-89.82000	-0.00802	-0.02263	0.01989	-0.00380	-0.00401	0.00051
1.68600	0.00146	0.00072	0.00096	0.00122	-3.78840	-89.82000	-0.00802	-0.02263	0.01989	-0.00380	-0.00401	0.00051
1.68800	0.00146	0.00072	0.00096	0.00122	-3.78840	-89.82000	-0.00802	-0.02263	0.01989	-0.00380	-0.00401	0.00051
1.69000	0.00026	0.00212	0.00069	0.00269	-3.78840	-89.82000	0.00185	-0.02819	0.00725	-0.00483	-0.00812	-0.00154
1.69200	0.00026	0.00212	0.00069	0.00269	-3.69820	-89.82000	0.00185	-0.02819	0.00725	-0.00483	-0.00812	-0.00154
1.69400	0.00026	0.00212	0.00069	0.00269	-3.69820	-89.82000	0.00185	-0.02819	0.00725	-0.00483	-0.00812	-0.00154
1.69600	0.00026	0.00212	0.00069	0.00269	-3.69820	-89.91000	0.00185	-0.02819	0.00725	-0.00483	-0.00812	-0.00154
1.69800	-0.00046	0.00096	0.00075	0.00353	-3.69820	-89.91000	-0.01286	-0.06492	0.01172	-0.00380	-0.00987	-0.00082
1.70000	-0.00046	0.00096	0.00075	0.00353	-3.78840	-89.91000	-0.01286	-0.06492	0.01172	-0.00380	-0.00987	-0.00082
1.70200	-0.00046	0.00096	0.00075	0.00353	-3.78840	-89.91000	-0.01286	-0.06492	0.01172	-0.00380	-0.00987	-0.00082
1.70400	-0.00046	0.00096	0.00075	0.00353	-3.87860	-89.91000	-0.01286	-0.06492	0.01172	-0.00380	-0.00987	-0.00082
1.70600	-0.00061	0.00168	0.00068	0.00280	-3.96880	-89.82000	0.00463	-0.05123	0.01835	-0.00833	-0.01234	0.00319
1.70800	-0.00061	0.00168	0.00068	0.00280	0.00000	0.00000	0.00463	-0.05123	0.01835	-0.00833	-0.01234	0.00319
1.71000	-0.00061	0.00168	0.00068	0.00280	-3.87860	-89.82000	0.00463	-0.05123	0.01835	-0.00833	-0.01234	0.00319
1.71200	-0.00061	0.00168	0.00068	0.00280	-3.78840	-89.82000	0.00463	-0.05123	0.01835	-0.00833	-0.01234	0.00319
1.71400	0.00180	0.00094	0.00091	0.00212	-3.78840	-89.82000	0.00463	-0.05123	0.01835	-0.00833	-0.01234	0.00319
1.71600	0.00027	0.00188	0.00120	0.00159	-3.78840	-89.82000	-0.00597	-0.04115	0.00663	-0.00586	-0.01121	-0.00093
1.71800	0.00027	0.00188	0.00120	0.00159	-3.87860	-89.82000	-0.00597	-0.04115	0.00663	-0.00586	-0.01121	-0.00093
1.72000	0.00027	0.00188	0.00120	0.00159	-3.96880	-89.91000	-0.00597	-0.04115	0.00663	-0.00586	-0.01121	-0.00093
1.72200	0.00027	0.00188	0.00120	0.00159	-3.87860	-89.91000	-0.00597	-0.04115	0.00663	-0.00586	-0.01121	-0.00093
1.72400	0.00029	0.00215	0.00093	0.00116	-3.87860	-89.73000	-0.00360	-0.02500	-0.00432	-0.00237	-0.00360	0.00195
1.72600	0.00029	0.00215	0.00093	0.00116	-3.78840	-89.73000	-0.00360	-0.02500	-0.00432	-0.00237	-0.00360	0.00195
1.72800	0.00029	0.00215	0.00093	0.00116	-3.87860	-89.82000	-0.00360	-0.02500	-0.00432	-0.00237	-0.00360	0.00195
1.73000	0.00029	0.00215	0.00093	0.00116	0.00000	0.00000	-0.00360	-0.02500	-0.00432	-0.00237	-0.00360	0.00195
1.73200	0.00016	0.00082	0.00117	0.00183	-3.78840	-89.82000	0.00319	-0.00144	-0.01527	-0.00370	-0.00493	-0.00021
1.73400	0.00016	0.00082	0.00117	0.00183	-3.78840	-89.73000	0.00319	-0.00144	-0.01527	-0.00370	-0.00493	-0.00021
1.73600	0.00016	0.00082	0.00117	0.00183	-3.87860	-89.91000	0.00319	-0.00144	-0.01527	-0.00370	-0.00493	-0.00021
1.73800	0.00016	0.00082	0.00117	0.00183	-3.87860	-89.91000	0.00319	-0.00144	-0.01527	-0.00370	-0.00493	-0.00021
1.74000	0.00063	0.00189	0.00098	0.00213	-3.78840	-89.82000	0.00597	-0.01471	-0.03979	0.00237	-0.01337	-0.00113
1.74200	0.00063	0.00189	0.00098	0.00213	-3.69820	-89.82000	0.00597	-0.01471	-0.03979	0.00237	-0.01337	-0.00113
1.74400	0.00063	0.00189	0.00098	0.00213	-3.69820	-89.82000	0.00597	-0.01471	-0.03979	0.00237	-0.01337	-0.00113
1.74600	0.00063	0.00189	0.00098	0.00213	-3.69820	-89.82000	0.00597	-0.01471	-0.03979	0.00237	-0.01337	-0.00113
1.74800	0.00105	0.00038	0.00100	0.00256	-3.78840	-89.91000	0.03343	-0.00278	-0.05737	0.00751	-0.01326	-0.00627
1.75000	0.00105	0.00038	0.00100	0.00256	-3.87860	-89.82000	0.03343	-0.00278	-0.05737	0.00751	-0.01326	-0.00627
1.75200	0.00105	0.00038	0.00100	0.00256	-3.87860	-89.64000	0.03343	-0.00278	-0.05737	0.00751	-0.01326	-0.00627
1.75400	0.00105	0.00038	0.00100	0.00256	-3.87860	-89.64000	0.03343	-0.00278	-0.05737	0.00751	-0.01326	-0.00627
1.75600	0.00021	0.00185	0.00085	0.00215	-3.78840	-89.64000	0.04094	-0.01214	-0.04781	0.00041	-0.01460	-0.00638
1.75800	0.00021	0.00185	0.00085	0.00215	-3.78840	-89.55000	0.04094	-0.01214	-0.04781	0.00041	-0.01460	-0.00638
1.76000	0.00021	0.00185	0.00085	0.00215	-3.78840	-89.55000	0.04094	-0.01214	-0.04781	0.00041	-0.01460	-0.00638
1.76200	0.00021	0.00185	0.00085	0.00215	-3.69820	-89.73000	0.04094	-0.01214	-0.04781	0.00041	-0.01460	-0.00638
1.76400	0.00033	0.00082	0.00093	0.00132	-3.69820	-89.73000	0.05019	-0.02788	-0.06092	0.00257	-0.01666	-0.00113
1.76600	0.00033	0.00082	0.00093	0.00132	0.00000	0.00000	0.05019	-0.02788	-0.06092	0.00257	-0.01666	-0.00113
1.76800	0.00033	0.00082	0.00093	0.00132	-3.87860	-89.82000	0.05019	-0.02788	-0.06092	0.00257	-0.01666	-0.00113
1.77000	0.00033	0.00082	0.00093	0.00132	-3.78840	-89.73000	0.05019	-0.02788	-0.06092	0.00257	-0.01666	-0.00113
1.77200	0.00049	0.00255	0.00040	0.00168	-3.78840	-89.73000	0.04680	-0.02623	-0.07557	0.00360	-0.01583	0.00041
1.77400	0.00049	0.00255	0.00040	0.00168	-3.69820	-89.73000	0.04680	-0.02623	-0.07557	0.00360	-0.01583	0.00041
1.77600	0.00049	0.00255	0.00040	0.00168	-3.69820	-89.82000	0.04680	-0.02623	-0.07557	0.00360	-0.01583	0.00041
1.77800	0.00049	0.00255	0.00040	0.00168	-3.69820	-89.73000	0.04680	-0.02623	-0.07557	0.00360	-0.01583	0.00041
1.78000	0.00048	0.00020	0.00114	0.00235	-3.78840	-89.73000	0.03168	-0.03107	-0.06323	0.00432	-0.00894	-0.00134
1.78200	0.00048	0.00020	0.00114	0.00235	-3.69820	-89.64000	0.03168	-0.03107	-0.06323	0.00432	-0.00894	-0.00134
1.78400	0.00048	0.00020	0.00114	0.00235	-3.69820	-89.55000	0.03168	-0.03107	-0.06323	0.00432	-0.00894	-0.00134
1.78600	0.00048	0.00020	0.00114	0.00235	-3.69820	-89.64000	0.03168	-0.03107	-0.06323	0.00432	-0.00894	-0.00134
1.78800	-0.00013	0.00206	0.00078	0.00233	0.00000	0.00000	0.03394	-0.02397	-0.06446	0.00524	-0.01213	-0.00381
1.79000	-0.00013	0.00206	0.00078	0.00233	-3.87860	-89.82000	0.03394	-0.02397	-0.06446	0.00524	-0.01213	-0.00381
1.79200	-0.00013	0.00206	0.00078	0.00233	-3.78840	-89.82000	0.03394	-0.02397	-0.06446	0.00524	-0.01213	-0.00381
1.79400	-0.00013	0.00206	0.00078	0.00233	-3.87860	-89.91000	0.03394	-0.02397	-0.06446	0.00524	-0.01213	-0.00381
1.79600	-0.00020	0.00065	0.00078	0.00251	-3.87860	-89.91000	0.00854	-0.01996	-0.04750	0.00165	-0.00905	0.00062
1.79800	-0.00020	0.00065	0.00078	0.00251	-3.87860	-89.91000	0.00854	-0.01996	-0.04750	0.00165	-0.00905	0.00062
1.80000	-0.00020	0.00065	0.00078	0.00251	-3.87860	-89.82000	0.00854	-0.01996	-0.04750	0.00165	-0.00905	0.00062
1.80200	-0.00020	0.00065	0.00078	0.00251	0.00000	0.00000	0.00854	-0.01996	-0.04750	0.00165	-0.00905	0.00062
1.80400	0.00041	0.00165	0.00107	0.00098	-3.87860	-89.82000	0.00113	-0.00648	-0.03763	0.00494	-0.00308	0.00062
1.80600	0.00041	0.00165	0.00107	0.00098	-3.87860	-89.82000	0.00113	-0.00648	-0.03763	0.00494	-0.00308	0.00062
1.80800	0.00041	0.00165	0.00107	0.00098	-3.87860	-89.82000	0.00113	-0.00648	-0.03763	0.00494	-0.00308	0.00062
1.81000	0.00041	0.00165	0.00107	0.00098	-3.87860	-89.82000	0.00113	-0.00648	-0.03763	0.00494	-0.00308	0.00062
1.81200	0.00012	0.00123	0.00107	0.00115	-3.87860	-89.73000	0.00504	0.00370	-0.05829	0.00596	-0.00524	0.00720
1.81400	0.00012	0.00123	0.00107	0.00115	-3.96880	-89.82000	0.00504	0.00370	-0.05829	0.00596	-0.00524	0.00720
1.81600	0.00012	0.00123	0.00107	0.00115	-3.87860	-89.82000	0.00504	0.00370	-0.05829	0.00596	-0.00524	0.00720
1.81800	0.00012	0.00123	0.00107	0.00115	-3.78840	-89.82000	0.00504	0.00370	-0.05829	0.00596	-0.00524	0.00720
1.82000	0.00028	0.00156	0.00086	0.00143	-3.87860	-89.73000	-0.00607	-0.00267	-0.04673	0.00596	-0.00699	0.00247
1.82200	0.00028	0.00156	0.00086	0.00143	-3.87860	-89.73000	-0.00607	-0.00267	-0.04673	0.00596	-0.00699	0.00247
1.82400	0.00028	0.00156	0.00086	0.00143	0.00000	0.00000	-0.00607	-0.00267	-0.04673	0.00596	-0.00699	0.00247
1.82600	0.00028	0.00156	0.00086	0.00143	-3.87860	-89.73000	-0.00607	-0.00267	-0.04673	0.00596	-0.00699	0.00247
1.82800	0.00004	0.00067	0.00096	0.00211	-3.78840	-89.73000	0.02458	-0.00288	-0.04364	-0.00144	-0.00792	0.00432
1.83000	0.00004	0.00067	0.00096	0.00211	-3.78840	-89.82000	0.02458	-0.00288	-0.04364	-0.00144	-0.00792	0.00432
1.83200	0.00004	0.00067	0.00096	0.00211	-3.69820	-89.82000	0.02458	-0.00288	-0.04364	-0.00144	-0.00792	0.00432
1.83400	0.00004	0.00067	0.00096	0.00211	-3.69820	-89.73000	0.02458	-0.00288	-0.04364	-0.00144	-0.00792	0.00432
1.83600	0.00071	0.00101	0.00085	0.00286	-3.87860	-89.73000	0.02283	-0.02603	-0.03593	0.00123	-0.01234	-0.00041
1.83800	0.00071	0.00101	0.00085	0.00286	-3.87860	-89.82000	0.02283	-0.02603	-0.03593	0.00123	-0.01234	-0.00041
1.84000	0.00071	0.00101	0.00085	0.00286	-3.87860	-89.82000	0.02283	-0.02603	-0.03593	0.00123	-0.01234	-0.00041
1.84200	0.00071	0.00101	0.00085	0.00286	-3.78840	-89.73000	0.02283	-0.02603	-0.03593	0.00123	-0.01234	-0.00041
1.84400	0.00065	0.00106	0.00070	0.00202	-3.78840	-89.73000	0.03847	-0.01235	-0.02221	0.00134	-0.01748	0.00041
1.84600	0.00065	0.00106	0.00070	0.00202	0.00000	0.00000	0.03847	-0.01235	-0.02221	0.00134	-0.01748	0.00041
1.84800	0.00065	0.00106	0.00070	0.00202	-3.78840	-89.64000	0.03847	-0.01235	-0.02221	0.00134	-0.01748	0.00041
1.85000	0.00065	0.00106	0.00070	0.00202	-3.78840	-89.73000	0.03847	-0.01235	-0.02221	0.00134	-0.01748	0.00041
1.85200	0.00018	0.00126	0.00063	0.00179	-3.78840	-89.73000	0.04649	-0.01060	-0.03393	0.00586	-0.01635	-0.00453
1.85400	0.00018	0.00126	0.00063	0.00179	-3.87860	-89.73000	0.04649	-0.01060	-0.03393	0.00586	-0.01635	-0.00453
1.85600	0.00018	0.00126	0.00063	0.00179	-3.78840	-89.73000	0.04649	-0.01060	-0.03393	0.00586	-0.01635	-0.00453
1.85800	0.00018	0.00126	0.00063	0.00179	-3.87860	0.00000	0.04649	-0.01060	-0.03393	0.00586	-0.01635	-0.00453
1.86000	-0.00045	0.00068	0.00114	0.00183	0.00000	0.00000	0.02942	-0.02088	-0.03424	0.00288	-0.01676	0.00072
1.86200	-0.00045	0.00068	0.00114	0.00183	-3.78840	-89.64000	0.02942	-0.02088	-0.03424	0.00288	-0.01676	0.00072
1.86400	-0.00045	0.00068	0.00114	0.00183	-3.78840	-89.55000	0.02942	-0.02088	-0.03424	0.00288	-0.01676	0.00072
1.86600	-0.00045	0.00068	0.00114	0.00183	-3.78840	-89.55000	0.02942	-0.02088	-0.03424	0.00288	-0.01676	0.00072
1.86800	0.00130	0.00072	0.00093	0.00204	-3.87860	-89.73000	0.02736	0.00761	-0.01866	-0.00103	-0.01511	0.00031
1.87000	0.00130	0.00072	0.00093	0.00204	-3.87860	-89.73000	0.02736	0.00761	-0.01866	-0.00103	-0.01511	0.00031
1.87200	0.00130	0.00072	0.00093	0.00204	-3.78840	-89.73000	0.02736	0.00761	-0.01866	-0.00103	-0.01511	0.00031
1.87400	0.00130	0.00072	0.00093	0.00204	-3.78840	-89.73000	0.02736	0.00761	-0.01866	-0.00103	-0.01511	0.00031
1.87600	0.00034	0.00127	0.00070	0.00269	-3.87860	-89.73000	-0.00566	-0.00864	-0.02637	0.00360	-0.01018	0.00195
1.87800	0.00034	0.00127	0.00070	0.00269	-3.78840	-89.73000	-0.00566	-0.00864	-0.02637	0.00360	-0.01018	0.00195
1.88000	0.00034	0.00127	0.00070	0.00269	-3.78840	-89.73000	-0.00566	-0.00864	-0.02637	0.00360	-0.01018	0.00195
1.88200	0.00034	0.00127	0.00070	0.00269	0.00000	0.00000	-0.00566	-0.00864	-0.02637	0.00360	-0.01018	0.00195
1.88400	-0.00017	0.00098	0.00088	0.00280	-3.96880	-89.82000	-0.01008	-0.01019	-0.01604	0.00679	-0.00391	-0.00113
1.88600	-0.00017	0.00098	0.00088	0.00280	-4.05900	-89.82000	-0.01008	-0.01019	-0.01604	0.00679	-0.00391	-0.00113
1.88800	-0.00017	0.00098	0.00088	0.00280	-3.96880	-89.82000	-0.01008	-0.01019	-0.01604	0.00679	-0.00391	-0.00113
1.89000	-0.00017	0.00098	0.00088	0.00280	-3.96880	-89.82000	-0.01008	-0.01019	-0.01604	0.00679	-0.00391	-0.00113
1.89200	-0.00043	0.00102	0.00077	0.00235	-3.96880	-89.82000	-0.00792	-0.00216	-0.02622	-0.00154	-0.00792	0.00535
1.89400	-0.00043	0.00102	0.00077	0.00235	-3.96880	-89.73000	-0.00792	-0.00216	-0.02622	-0.00154	-0.00792	0.00535
1.89600	-0.00043	0.00102	0.00077	0.00235	-3.87860	-89.73000	-0.00792	-0.00216	-0.02622	-0.00154	-0.00792	0.00535
1.89800	-0.00043	0.00102	0.00077	0.00235	-3.87860	-89.64000	-0.00792	-0.00216	-0.02622	-0.00154	-0.00792	0.00535
1.90000	0.00113	0.00115	0.00071	0.00200	-3.87860	-89.55000	-0.01039	-0.01883	-0.03933	0.00494	-0.00761	-0.00010
1.90200	0.00113	0.00115	0.00071	0.00200	-3.87860	-89.55000	-0.01039	-0.01883	-0.03933	0.00494	-0.00761	-0.00010
1.90400	0.00113	0.00115	0.00071	0.00200	0.00000	0.00000	-0.01039	-0.01883	-0.03933	0.00494	-0.00761	-0.00010
1.90600	0.00113	0.00115	0.00071	0.00200	-3.87860	-89.73000	-0.01039	-0.01883	-0.03933	0.00494	-0.00761	-0.00010
1.90800	0.00016	0.00151	0.00068	0.00156	-3.87860	-89.64000	0.02026	-0.00062	-0.04441	0.00853	-0.01326	0.00648
1.91000	0.00016	0.00151	0.00068	0.00156	-3.87860	-89.73000	0.02026	-0.00062	-0.04441	0.00853	-0.01326	0.00648
1.91200	0.00016	0.00151	0.00068	0.00156	-3.87860	-89.82000	0.02026	-0.00062	-0.04441	0.00853	-0.01326	0.00648
1.91400	0.00016	0.00151	0.00068	0.00156	-3.78840	-89.82000	0.02026	-0.00062	-0.04441	0.00853	-0.01326	0.00648
1.91600	0.00010	0.00099	0.00068	0.00230	-3.78840	-89.82000	0.00895	-0.01708	-0.03408	0.00267	-0.01635	0.00545
1.91800	0.00010	0.00099	0.00068	0.00230	-3.87860	-89.82000	0.00895	-0.01708	-0.03408	0.00267	-0.01635	0.00545
1.92000	0.00010	0.00099	0.00068	0.00230	-3.96880	-89.82000	0.00895	-0.01708	-0.03408	0.00267	-0.01635	0.00545
1.92200	0.00010	0.00099	0.00068	0.00230	-3.96880	-89.82000	0.00895	-0.01708	-0.03408	0.00267	-0.01635	0.00545
1.92400	-0.00043	0.00177	0.00067	0.00224	-3.87860	-89.91000	0.00411	-0.01615	-0.02483	0.00278	-0.00524	0.00185
1.92600	-0.00043	0.00177	0.00067	0.00224	0.00000	0.00000	0.00411	-0.01615	-0.02483	0.00278	-0.00524	0.00185
1.92800	-0.00043	0.00177	0.00067	0.00224	-3.96880	-89.82000	0.00411	-0.01615	-0.02483	0.00278	-0.00524	0.00185
1.93000	-0.00043	0.00177	0.00067	0.00224	-3.96880	-89.82000	0.00411	-0.01615	-0.02483	0.00278	-0.00524	0.00185
1.93200	0.00172	0.00150	0.00081	0.00183	-3.87860	-89.82000	-0.00792	-0.01224	-0.02930	0.00843	-0.00504	-0.00226
1.93400	0.00172	0.00150	0.00081	0.00183	-4.05900	-89.82000	-0.00792	-0.01224	-0.02930	0.00843	-0.00504	-0.00226
1.93600	0.00172	0.00150	0.00081	0.00183	-3.96880	-89.82000	-0.00792	-0.01224	-0.02930	0.00843	-0.00504	-0.00226
1.93800	0.00172	0.00150	0.00081	0.00183	0.00000	0.00000	-0.00792	-0.01224	-0.02930	0.00843	-0.00504	-0.00226
1.94000	-0.00038	0.00177	0.00069	0.00182	-4.05900	-89.91000	-0.03909	-0.03045	-0.02838	0.00339	-0.00483	0.00103
1.94200	-0.00038	0.00177	0.00069	0.00182	-3.87860	-89.82000	-0.03909	-0.03045	-0.02838	0.00339	-0.00483	0.00103
1.94400	-0.00038	0.00177	0.00069	0.00182	-3.78840	-89.73000	-0.03909	-0.03045	-0.02838	0.00339	-0.00483	0.00103
1.94600	-0.00038	0.00177	0.00069	0.00182	-3.78840	-89.82000	-0.03909	-0.03045	-0.02838	0.00339	-0.00483	0.00103
1.94800	0.00045	0.00083	0.00061	0.00268	-3.78840	-89.73000	-0.03909	-0.03045	-0.02838	-0.00072	0.01038	0.00113
1.95000	0.00076	0.00059	0.00102	0.00188	-3.78840	-89.82000	-0.02294	-0.00545	-0.05444	-0.00072	0.01038	0.00113
1.95200	0.00076	0.00059	0.00102	0.00188	-3.78840	-89.91000	-0.02294	-0.00545	-0.05444	-0.00072	0.01038	0.00113
1.95400	0.00076	0.00059	0.00102	0.00188	-3.87860	-89.91000	-0.02294	-0.00545	-0.05444	-0.00072	0.01038	0.00113
1.95600	0.00076	0.00059	0.00102	0.00188	-3.87860	-89.91000	-0.02294	-0.00545	-0.05444	-0.00072	0.01038	0.00113
1.95800	0.00007	0.00217	0.00074	0.00192	-3.87860	-89.82000	-0.02150	-0.01101	-0.03439	-0.00021	0.00051	0.00597
1.96000	0.00007	0.00217	0.00074	0.00192	-3.87860	-89.91000	-0.02150	-0.01101	-0.03439	-0.00021	0.00051	0.00597
1.96200	0.00007	0.00217	0.00074	0.00192	0.00000	0.00000	-0.02150	-0.01101	-0.03439	-0.00021	0.00051	0.00597
1.96400	0.00007	0.00217	0.00074	0.00192	-3.69820	-89.82000	-0.02150	-0.01101	-0.03439	-0.00021	0.00051	0.00597
1.96600	0.00151	0.00054	0.00085	0.00203	-3.69820	-89.82000	0.01265	0.00329	-0.02529	0.00206	-0.00751	0.00031
1.96800	0.00151	0.00054	0.00085	0.00203	-3.87860	-89.91000	0.01265	0.00329	-0.02529	0.00206	-0.00751	0.00031
1.97000	0.00151	0.00054	0.00085	0.00203	-3.87860	-89.82000	0.01265	0.00329	-0.02529	0.00206	-0.00751	0.00031
1.97200	0.00151	0.00054	0.00085	0.00203	-3.87860	-89.82000	0.01265	0.00329	-0.02529	0.00206	-0.00751	0.00031
1.97400	-0.00005	0.00163	0.00104	0.00209	-3.78840	-89.91000	0.04762	0.00041	-0.03084	0.00165	-0.01594	0.00298
1.97600	-0.00005	0.00163	0.00104	0.00209	-3.78840	-89.82000	0.04762	0.00041	-0.03084	0.00165	-0.01594	0.00298
1.97800	-0.00005	0.00163	0.00104	0.00209	-3.78840	-89.82000	0.04762	0.00041	-0.03084	0.00165	-0.01594	0.00298
1.98000	-0.00005	0.00163	0.00104	0.00209	-3.78840	-89.82000	0.04762	0.00041	-0.03084	0.00165	-0.01594	0.00298
1.98200	0.00017	0.00052	0.00069	0.00244	0.00000	0.00000	0.05873	-0.03210	-0.00524	-0.00154	-0.02550	0.00103
1.98400	0.00017	0.00052	0.00069	0.00244	0.00000	0.00000	0.05873	-0.03210	-0.00524	-0.00154	-0.02550	0.00103
1.98600	0.00017	0.00052	0.00069	0.00244	-3.69820	-89.64000	0.05873	-0.03210	-0.00524	-0.00154	-0.02550	0.00103
1.98800	0.00017	0.00052	0.00069	0.00244	-3.69820	-89.64000	0.05873	-0.03210	-0.00524	-0.00154	-0.02550	0.00103
1.99000	-0.00033	0.00184	0.00099	0.00275	-3.78840	-89.73000	0.09000	-0.03261	-0.01373	-0.00278	-0.02807	0.00185
1.99200	-0.00033	0.00184	0.00099	0.00275	-3.69820	-89.73000	0.09000	-0.03261	-0.01373	-0.00278	-0.02807	0.00185
1.99400	-0.00033	0.00184	0.00099	0.00275	-3.60800	-89.91000	0.09000	-0.03261	-0.01373	-0.00278	-0.02807	0.00185
1.99600	-0.00033	0.00184	0.00099	0.00275	-3.60800	-89.82000	0.09000	-0.03261	-0.01373	-0.00278	-0.02807	0.00185
1.99800	0.00080	0.00062	0.00062	0.00264	-3.69820	-89.91000	0.06315	-0.04856	-0.00694	-0.00195	-0.02776	0.00154
2.00000	0.00039	0.00280	0.00027	0.00207	-3.78840	-89.82000	0.06315	-0.04856	-0.00694	-0.00195	-0.02776	0.00154
2.00200	0.00039	0.00280	0.00027	0.00207	-3.78840	-89.82000	0.06315	-0.04856	-0.00694	-0.00195	-0.02776	0.00154
2.00400	0.00039	0.00280	0.00027	0.00207	-3.78840	-89.73000	0.06315	-0.04856	-0.00694	-0.00195	-0.02776	0.00154
2.00600	0.00039	0.00280	0.00027	0.00207	0.00000	0.00000	0.06315	-0.04856	-0.00694	-0.00195	-0.02776	0.00154
2.00800	-0.00023	0.00129	0.00079	0.00171	-3.87860	-89.82000	0.06789	-0.03128	-0.02082	-0.00401	-0.01871	-0.00082
2.01000	-0.00023	0.00129	0.00079	0.00171	-3.87860	-89.91000	0.06789	-0.03128	-0.02082	-0.00401	-0.01871	-0.00082
2.01200	-0.00023	0.00129	0.00079	0.00171	-3.87860	-89.91000	0.06789	-0.03128	-0.02082	-0.00401	-0.01871	-0.00082
2.01400	-0.00023	0.00129	0.00079	0.00171	-3.87860	-89.73000	0.06789	-0.03128	-0.02082	-0.00401	-0.01871	-0.00082
2.01600	-0.00024	0.00118	0.00065	0.00124	-3.87860	-89.91000	0.04546	-0.03241	-0.02575	-0.00627	-0.01532	0.00165
2.01800	0.00006	0.00237	0.00079	0.00141	-3.87860	-89.91000	0.04546	-0.03241	-0.02575	-0.00627	-0.01532	0.00165
2.02000	0.00006	0.00237	0.00079	0.00141	-3.87860	-89.82000	0.04546	-0.03241	-0.02575	-0.00627	-0.01532	0.00165
2.02200	0.00006	0.00237	0.00079	0.00141	-3.78840	-89.82000	0.04546	-0.03241	-0.02575	-0.00627	-0.01532	0.00165
2.02400	0.00006	0.00237	0.00079	0.00141	-3.78840	-89.82000	0.04546	-0.03241	-0.02575	-0.00627	-0.01532	0.00165
2.02600	0.00182	0.00067	0.00071	0.00245	0.00000	0.00000	0.03651	-0.02562	-0.04102	-0.00494	-0.01131	0.00185
2.02800	0.00182	0.00067	0.00071	0.00245	0.00000	0.00000	0.03651	-0.02562	-0.04102	-0.00494	-0.01131	0.00185
2.03000	0.00182	0.00067	0.00071	0.00245	-3.96880	-89.82000	0.03651	-0.02562	-0.04102	-0.00494	-0.01131	0.00185
2.03200	0.00182	0.00067	0.00071	0.00245	-3.87860	-89.73000	0.03651	-0.02562	-0.04102	-0.00494	-0.01131	0.00185
2.03400	-0.00004	0.00177	0.00084	0.00261	-3.87860	-89.73000	0.04330	-0.02593	-0.04781	-0.00586	-0.01234	-0.00350
2.03600	-0.00004	0.00177	0.00084	0.00261	-3.78840	-89.73000	0.04330	-0.02593	-0.04781	-0.00586	-0.01234	-0.00350
2.03800	-0.00004	0.00177	0.00084	0.00261	-3.78840	-89.73000	0.04330	-0.02593	-0.04781	-0.00586	-0.01234	-0.00350
2.04000	-0.00004	0.00177	0.00084	0.00261	-3.78840	-89.64000	0.04330	-0.02593	-0.04781	-0.00586	-0.01234	-0.00350
2.04200	-0.00017	0.00100	0.00099	0.00245	-3.78840	-89.64000	0.03898	-0.03210	-0.05752	-0.00247	-0.01254	-0.00041
2.04400	-0.00017	0.00100	0.00099	0.00245	-3.96880	-89.73000	0.03898	-0.03210	-0.05752	-0.00247	-0.01254	-0.00041
2.04600	-0.00017	0.00100	0.00099	0.00245	-3.87860	-89.73000	0.03898	-0.03210	-0.05752	-0.00247	-0.01254	-0.00041
2.04800	-0.00017	0.00100	0.00099	0.00245	-3.87860	-89.64000	0.03898	-0.03210	-0.05752	-0.00247	-0.01254	-0.00041
2.05000	0.00010	0.00173	0.00066	0.00231	-3.78840	-89.73000	0.05565	-0.03673	-0.05984	0.00123	-0.01326	-0.00103
2.05200	0.00010	0.00173	0.00066	0.00231	-3.69820	-89.73000	0.05565	-0.03673	-0.05984	0.00123	-0.01326	-0.00103
2.05400	0.00010	0.00173	0.00066	0.00231	-3.78840	-89.82000	0.05565	-0.03673	-0.05984	0.00123	-0.01326	-0.00103
2.05600	0.00010	0.00173	0.00066	0.00231	-3.87860	-89.91000	0.05565	-0.03673	-0.05984	0.00123	-0.01326	-0.00103
2.05800	0.00143	0.00085	0.00060	0.00203	-3.87860	-89.82000	0.03621	-0.04568	-0.04148	-0.00113	-0.01429	-0.00309
2.06000	0.00143	0.00085	0.00060	0.00203	-3.78840	-89.82000	0.03621	-0.04568	-0.04148	-0.00113	-0.01429	-0.00309
2.06200	0.00143	0.00085	0.00060	0.00203	-3.69820	-89.82000	0.03621	-0.04568	-0.04148	-0.00113	-0.01429	-0.00309
2.06400	0.00143	0.00085	0.00060	0.00203	-3.60800	-89.82000	0.03621	-0.04568	-0.04148	-0.00113	-0.01429	-0.00309
2.06600	0.00010	0.00173	0.00024	0.00191	-3.60800	-89.91000	0.02777	-0.03868	-0.04102	-0.00319	-0.01234	-0.00165
2.06800	0.00010	0.00173	0.00024	0.00191	-3.87860	-89.82000	0.02777	-0.03868	-0.04102	-0.00319	-0.01234	-0.00165
2.07000	0.00010	0.00173	0.00024	0.00191	-3.87860	-89.73000	0.02777	-0.03868	-0.04102	-0.00319	-0.01234	-0.00165
2.07200	0.00010	0.00173	0.00024	0.00191	-3.87860	-89.73000	0.02777	-0.03868	-0.04102	-0.00319	-0.01234	-0.00165
2.07400	0.00046	0.00071	0.00071	0.00316	-3.87860	-89.73000	0.00936	-0.04527	-0.04272	-0.00761	-0.00679	0.00360
2.07600	0.00046	0.00071	0.00071	0.00316	-3.87860	-89.73000	0.00936	-0.04527	-0.04272	-0.00761	-0.00679	0.00360
2.07800	0.00046	0.00071	0.00071	0.00316	-3.78840	-89.64000	0.00936	-0.04527	-0.04272	-0.00761	-0.00679	0.00360
2.08000	0.00046	0.00071	0.00071	0.00316	-3.69820	-89.73000	0.00936	-0.04527	-0.04272	-0.00761	-0.00679	0.00360
2.08200	0.00020	0.00204	0.00055	0.00313	-3.69820	-89.82000	-0.02304	-0.03066	-0.02575	-0.00586	-0.00278	0.00185
2.08400	0.00020	0.00204	0.00055	0.00313	-3.69820	-89.73000	-0.02304	-0.03066	-0.02575	-0.00586	-0.00278	0.00185
2.08600	0.00020	0.00204	0.00055	0.00313	-3.78840	-89.73000	-0.02304	-0.03066	-0.02575	-0.00586	-0.00278	0.00185
2.08800	0.00020	0.00204	0.00055	0.00313	-3.78840	-89.82000	-0.02304	-0.03066	-0.02575	-0.00586	-0.00278	0.00185
2.09000	0.00158	0.00020	0.00085	0.00232	-3.78840	-89.82000	-0.01090	-0.00936	-0.05629	0.00298	0.00123	0.00483
2.09200	0.00158	0.00020	0.00085	0.00232	-3.78840	-89.73000	-0.01090	-0.00936	-0.05629	0.00298	0.00123	0.00483
2.09400	0.00158	0.00020	0.00085	0.00232	-3.78840	-89.55000	-0.01090	-0.00936	-0.05629	0.00298	0.00123	0.00483
2.09600	0.00158	0.00020	0.00085	0.00232	-3.87860	-89.55000	-0.01090	-0.00936	-0.05629	0.00298	0.00123	0.00483
2.09800	-0.00037	0.00156	0.00069	0.00185	-3.87860	-89.55000	-0.03857	-0.01008	-0.06215	0.00154	0.00504	0.00350
2.10000	-0.00037	0.00156	0.00069	0.00185	-3.87860	-89.64000	-0.03857	-0.01008	-0.06215	0.00154	0.00504	0.00350
2.10200	-0.00037	0.00156	0.00069	0.00185	-3.96880	-89.73000	-0.03857	-0.01008	-0.06215	0.00154	0.00504	0.00350
2.10400	-0.00037	0.00156	0.00069	0.00185	-3.87860	-89.73000	-0.03857	-0.01008	-0.06215	0.00154	0.00504	0.00350
2.10600	0.00011	0.00096	0.00061	0.00172	-3.87860	-89.82000	-0.03363	0.00278	-0.05151	0.00206	0.00822	0.00144
2.10800	0.00011	0.00096	0.00061	0.00172	0.00000	0.00000	-0.03363	0.00278	-0.05151	0.00206	0.00822	0.00144
2.11000	0.00011	0.00096	0.00061	0.00172	-3.96880	-89.91000	-0.03363	0.00278	-0.05151	0.00206	0.00822	0.00144
2.11200	0.00011	0.00096	0.00061	0.00172	-3.96880	-89.82000	-0.03363	0.00278	-0.05151	0.00206	0.00822	0.00144
2.11400	0.00005	0.00185	0.00100	0.00228	-3.87860	-89.73000	-0.03456	-0.00998	-0.06863	-0.00000	-0.00010	0.00319
2.11600	0.00005	0.00185	0.00100	0.00228	-3.87860	-89.73000	-0.03456	-0.00998	-0.06863	-0.00000	-0.00010	0.00319
2.11800	0.00005	0.00185	0.00100	0.00228	-3.87860	-89.64000	-0.03456	-0.00998	-0.06863	-0.00000	-0.00010	0.00319
2.12000	0.00005	0.00185	0.00100	0.00228	-3.78840	-89.73000	-0.03456	-0.00998	-0.06863	-0.00000	-0.00010	0.00319
2.12200	0.00141	0.00072	0.00118	0.00266	-3.78840	-89.73000	-0.03507	-0.03498	-0.05259	0.00144	0.00432	-0.00134
2.12400	0.00141	0.00072	0.00118	0.00266	-3.78840	-89.73000	-0.03507	-0.03498	-0.05259	0.00144	0.00432	-0.00134
2.12600	0.00141	0.00072	0.00118	0.00266	-3.78840	-89.73000	-0.03507	-0.03498	-0.05259	0.00144	0.00432	-0.00134
2.12800	0.00141	0.00072	0.00118	0.00266	-3.78840	-89.64000	-0.03507	-0.03498	-0.05259	0.00144	0.00432	-0.00134
2.13000	0.00044	0.00178	0.00083	0.00274	-3.87860	-89.64000	0.00607	-0.02500	-0.04966	0.00144	0.00051	-0.00051
2.13200	0.00044	0.00178	0.00083	0.00274	-3.87860	-89.55000	0.00607	-0.02500	-0.04966	0.00144	0.00051	-0.00051
2.13400	0.00044	0.00178	0.00083	0.00274	-3.78840	-89.64000	0.00607	-0.02500	-0.04966	0.00144	0.00051	-0.00051
2.13600	0.00044	0.00178	0.00083	0.00274	-3.87860	-89.55000	0.00607	-0.02500	-0.04966	0.00144	0.00051	-0.00051
2.13800	0.00045	0.00059	0.00072	0.00162	-3.87860	-89.73000	0.01625	-0.03776	-0.03131	-0.00072	-0.01090	0.00113
2.14000	0.00045	0.00059	0.00072	0.00162	-3.87860	-89.73000	0.01625	-0.03776	-0.03131	-0.00072	-0.01090	0.00113
2.14200	0.00045	0.00059	0.00072	0.00162	-3.78840	-89.73000	0.01625	-0.03776	-0.03131	-0.00072	-0.01090	0.00113
2.14400	0.00045	0.00059	0.00072	0.00162	0.00000	0.00000	0.01625	-0.03776	-0.03131	-0.00072	-0.01090	0.00113
2.14600	0.00029	0.00206	0.00075	0.00132	-3.78840	-89.82000	0.03775	-0.01276	-0.03701	-0.00000	-0.01902	0.00267
2.14800	0.00029	0.00206	0.00075	0.00132	-3.69820	-89.82000	0.03775	-0.01276	-0.03701	-0.00000	-0.01902	0.00267
2.15000	0.00029	0.00206	0.00075	0.00132	-3.69820	-89.82000	0.03775	-0.01276	-0.03701	-0.00000	-0.01902	0.00267
2.15200	0.00029	0.00206	0.00075	0.00132	-3.69820	-89.91000	0.03775	-0.01276	-0.03701	-0.00000	-0.01902	0.00267
2.15400	0.00072	0.00035	0.00066	0.00169	-3.78840	-89.91000	0.05565	0.00113	-0.02884	-0.00226	-0.02262	0.00525
2.15600	0.00072	0.00035	0.00066	0.00169	-3.78840	-89.82000	0.05565	0.00113	-0.02884	-0.00226	-0.02262	0.00525
2.15800	0.00072	0.00035	0.00066	0.00169	-3.69820	-89.91000	0.05565	0.00113	-0.02884	-0.00226	-0.02262	0.00525
2.16000	0.00072	0.00035	0.00066	0.00169	-3.60800	-89.82000	0.05565	0.00113	-0.02884	-0.00226	-0.02262	0.00525
2.16200	-0.00034	0.00172	0.00088	0.00265	-3.69820	-89.82000	0.04659	-0.00854	-0.03593	-0.00278	-0.02200	0.00432
2.16400	-0.00034	0.00172	0.00088	0.00265	-3.78840	-89.73000	0.04659	-0.00854	-0.03593	-0.00278	-0.02200	0.00432
2.16600	-0.00034	0.00172	0.00088	0.00265	0.00000	0.00000	0.04659	-0.00854	-0.03593	-0.00278	-0.02200	0.00432
2.16800	-0.00034	0.00172	0.00088	0.00265	-3.78840	-89.82000	0.04659	-0.00854	-0.03593	-0.00278	-0.02200	0.00432
2.17000	0.00024	0.00048	0.00073	0.00314	-3.78840	-89.82000	0.04659	-0.00854	-0.03593	-0.00278	-0.02200	0.00432
2.17200	-0.00045	0.00372	0.00036	0.00316	-3.78840	-89.82000	0.05781	-0.01893	-0.03655	-0.00627	-0.01799	0.00298
2.17400	-0.00045	0.00372	0.00036	0.00316	-3.78840	-89.82000	0.05781	-0.01893	-0.03655	-0.00627	-0.01799	0.00298
2.17600	-0.00045	0.00372	0.00036	0.00316	-3.69820	-89.82000	0.05781	-0.01893	-0.03655	-0.00627	-0.01799	0.00298
2.17800	-0.00045	0.00372	0.00036	0.00316	-3.69820	-89.82000	0.05781	-0.01893	-0.03655	-0.00627	-0.01799	0.00298
2.18000	0.00101	0.00191	0.00007	0.00312	-3.69820	-89.82000	0.02890	-0.03889	-0.03917	-0.00422	-0.01902	0.00453
2.18200	0.00101	0.00191	0.00007	0.00312	-3.87860	-89.82000	0.02890	-0.03889	-0.03917	-0.00422	-0.01902	0.00453
2.18400	0.00101	0.00191	0.00007	0.00312	-3.87860	-89.82000	0.02890	-0.03889	-0.03917	-0.00422	-0.01902	0.00453
2.18600	0.00101	0.00191	0.00007	0.00312	-3.87860	-89.82000	0.02890	-0.03889	-0.03917	-0.00422	-0.01902	0.00453
2.18800	0.00050	0.00068	0.00103	0.00137	-3.87860	-89.82000	0.03024	-0.04547	-0.04395	-0.00730	-0.01028	0.00093
2.19000	0.00050	0.00068	0.00103	0.00137	-3.87860	-89.82000	0.03024	-0.04547	-0.04395	-0.00730	-0.01028	0.00093
2.19200	0.00050	0.00068	0.00103	0.00137	-3.87860	-89.82000	0.03024	-0.04547	-0.04395	-0.00730	-0.01028	0.00093
2.19400	0.00050	0.00068	0.00103	0.00137	-3.87860	-89.73000	0.03024	-0.04547	-0.04395	-0.00730	-0.01028	0.00093
2.19600	0.00009	0.00135	0.00098	0.00221	-3.78840	-89.73000	0.00494	-0.05494	-0.02452	-0.00411	-0.01131	-0.00021
2.19800	0.00009	0.00135	0.00098	0.00221	-3.78840	-89.55000	0.00494	-0.05494	-0.02452	-0.00411	-0.01131	-0.00021
2.20000	0.00009	0.00135	0.00098	0.00221	-3.78840	-89.55000	0.00494	-0.05494	-0.02452	-0.00411	-0.01131	-0.00021
2.20200	0.00009	0.00135	0.00098	0.00221	-3.78840	-89.64000	0.00494	-0.05494	-0.02452	-0.00411	-0.01131	-0.00021
2.20400	-0.00048	0.00083	0.00082	0.00228	-3.78840	-89.73000	0.01008	-0.05206	-0.01773	-0.00237	-0.01151	0.00021
2.20600	-0.00048	0.00083	0.00082	0.00228	-3.78840	-89.73000	0.01008	-0.05206	-0.01773	-0.00237	-0.01151	0.00021
2.20800	-0.00048	0.00083	0.00082	0.00228	-3.69820	-89.82000	0.01008	-0.05206	-0.01773	-0.00237	-0.01151	0.00021
2.21000	-0.00048	0.00083	0.00082	0.00228	-3.69820	-89.73000	0.01008	-0.05206	-0.01773	-0.00237	-0.01151	0.00021
2.21200	0.00149	0.00144	0.00034	0.00172	-3.87860	-89.73000	0.04742	-0.03652	-0.02699	-0.00710	-0.01275	0.00062
2.21400	0.00149	0.00144	0.00034	0.00172	-3.87860	-89.64000	0.04742	-0.03652	-0.02699	-0.00710	-0.01275	0.00062
2.21600	0.00149	0.00144	0.00034	0.00172	-3.96880	-89.73000	0.04742	-0.03652	-0.02699	-0.00710	-0.01275	0.00062
2.21800	0.00149	0.00144	0.00034	0.00172	-3.96880	-89.73000	0.04742	-0.03652	-0.02699	-0.00710	-0.01275	0.00062
2.22000	0.00011	0.00123	0.00079	0.00259	-3.87860	-89.82000	0.05349	-0.03632	-0.02144	-0.00607	-0.02056	0.00514
2.22200	0.00011	0.00123	0.00079	0.00259	-3.87860	-89.82000	0.05349	-0.03632	-0.02144	-0.00607	-0.02056	0.00514
2.22400	0.00011	0.00123	0.00079	0.00259	-3.78840	-89.82000	0.05349	-0.03632	-0.02144	-0.00607	-0.02056	0.00514
2.22600	0.00011	0.00123	0.00079	0.00259	-3.87860	-89.82000	0.05349	-0.03632	-0.02144	-0.00607	-0.02056	0.00514
2.22800	0.00006	0.00074	0.00130	0.00217	-3.78840	-89.82000	0.07972	-0.01842	-0.03254	-0.00545	-0.02252	0.00031
2.23000	0.00006	0.00074	0.00130	0.00217	-3.69820	-89.64000	0.07972	-0.01842	-0.03254	-0.00545	-0.02252	0.00031
2.23200	0.00006	0.00074	0.00130	0.00217	-3.78840	-89.82000	0.07972	-0.01842	-0.03254	-0.00545	-0.02252	0.00031
2.23400	0.00006	0.00074	0.00130	0.00217	-3.69820	-89.82000	0.07972	-0.01842	-0.03254	-0.00545	-0.02252	0.00031
2.23600	-0.00034	0.00140	0.00089	0.00144	-3.78840	-89.73000	0.05894	-0.02654	-0.03609	-0.00442	-0.02334	0.00175
2.23800	-0.00034	0.00140	0.00089	0.00144	-3.69820	-89.82000	0.05894	-0.02654	-0.03609	-0.00442	-0.02334	0.00175
2.24000	-0.00034	0.00140	0.00089	0.00144	-3.69820	-89.73000	0.05894	-0.02654	-0.03609	-0.00442	-0.02334	0.00175
2.24200	-0.00034	0.00140	0.00089	0.00144	-3.69820	-89.73000	0.05894	-0.02654	-0.03609	-0.00442	-0.02334	0.00175
2.24400	0.00167	0.00054	0.00106	0.00162	-3.60800	-89.73000	0.03888	-0.03868	-0.02267	-0.00658	-0.01244	-0.00267
2.24600	0.00167	0.00054	0.00106	0.00162	0.00000	0.00000	0.03888	-0.03868	-0.02267	-0.00658	-0.01244	-0.00267
2.24800	0.00167	0.00054	0.00106	0.00162	-3.78840	-89.82000	0.03888	-0.03868	-0.02267	-0.00658	-0.01244	-0.00267
2.25000	0.00167	0.00054	0.00106	0.00162	-3.78840	-89.91000	0.03888	-0.03868	-0.02267	-0.00658	-0.01244	-0.00267
2.25200	-0.00048	0.00133	0.00102	0.00209	-3.69820	-89.91000	0.01625	-0.05494	-0.03069	-0.00761	-0.00339	0.00051
2.25400	-0.00048	0.00133	0.00102	0.00209	-3.87860	-89.82000	0.01625	-0.05494	-0.03069	-0.00761	-0.00339	0.00051
2.25600	-0.00048	0.00133	0.00102	0.00209	-3.87860	-89.82000	0.01625	-0.05494	-0.03069	-0.00761	-0.00339	0.00051
2.25800	-0.00048	0.00133	0.00102	0.00209	-3.87860	-89.82000	0.01625	-0.05494	-0.03069	-0.00761	-0.00339	0.00051
2.26000	0.00023	0.00069	0.00100	0.00243	-3.78840	-89.82000	-0.02026	-0.07603	-0.02730	-0.00627	0.00216	-0.00165
2.26200	0.00023	0.00069	0.00100	0.00243	-3.78840	-89.91000	-0.02026	-0.07603	-0.02730	-0.00627	0.00216	-0.00165
2.26400	0.00023	0.00069	0.00100	0.00243	-3.78840	-89.91000	-0.02026	-0.07603	-0.02730	-0.00627	0.00216	-0.00165
2.26600	0.00023	0.00069	0.00100	0.00243	-3.60800	-89.82000	-0.02026	-0.07603	-0.02730	-0.00627	0.00216	-0.00165
2.26800	-0.00001	0.00185	0.00049	0.00217	-3.69820	-89.82000	-0.01677	-0.05401	-0.02066	-0.01501	0.00319	0.00257
2.27000	-0.00001	0.00185	0.00049	0.00217	-3.69820	-89.82000	-0.01677	-0.05401	-0.02066	-0.01501	0.00319	0.00257
2.27200	-0.00001	0.00185	0.00049	0.00217	-3.78840	-89.73000	-0.01677	-0.05401	-0.02066	-0.01501	0.00319	0.00257
2.27400	-0.00001	0.00185	0.00049	0.00217	-3.78840	-89.91000	-0.01677	-0.05401	-0.02066	-0.01501	0.00319	0.00257
2.27600	0.00172	0.00060	0.00078	0.00175	-3.78840	-89.91000	-0.01718	-0.04907	-0.02498	-0.01100	0.00144	0.00144
2.27800	0.00172	0.00060	0.00078	0.00175	-3.87860	-89.82000	-0.01718	-0.04907	-0.02498	-0.01100	0.00144	0.00144
2.28000	0.00172	0.00060	0.00078	0.00175	-3.69820	-89.82000	-0.01718	-0.04907	-0.02498	-0.01100	0.00144	0.00144
2.28200	0.00172	0.00060	0.00078	0.00175	-3.60800	-89.82000	-0.01718	-0.04907	-0.02498	-0.01100	0.00144	0.00144
2.28400	0.00010	0.00157	0.00107	0.00129	-3.69820	-89.82000	-0.01389	-0.03899	-0.01804	-0.00504	-0.00257	-0.00051
2.28600	0.00010	0.00157	0.00107	0.00129	-3.78840	-89.82000	-0.01389	-0.03899	-0.01804	-0.00504	-0.00257	-0.00051
2.28800	0.00010	0.00157	0.00107	0.00129	-3.87860	-89.82000	-0.01389	-0.03899	-0.01804	-0.00504	-0.00257	-0.00051
2.29000	0.00010	0.00157	0.00107	0.00129	-3.96880	-89.82000	-0.01389	-0.03899	-0.01804	-0.00504	-0.00257	-0.00051
2.29200	-0.00011	0.00072	0.00096	0.00130	-3.96880	-89.82000	-0.01389	-0.03899	-0.01804	-0.00504	-0.00257	-0.00051
2.29400	-0.00017	0.00030	0.00072	0.00196	-3.87860	-89.82000	0.00216	-0.02654	-0.01450	-0.01090	-0.00658	0.00041
2.29600	-0.00017	0.00030	0.00072	0.00196	-3.87860	-89.91000	0.00216	-0.02654	-0.01450	-0.01090	-0.00658	0.00041
2.29800	-0.00017	0.00030	0.00072	0.00196	-3.96880	-89.91000	0.00216	-0.02654	-0.01450	-0.01090	-0.00658	0.00041
2.30000	-0.00017	0.00030	0.00072	0.00196	-3.96880	-89.91000	0.00216	-0.02654	-0.01450	-0.01090	-0.00658	0.00041
2.30200	0.00009	0.00146	0.00089	0.00208	-3.96880	-89.91000	-0.01317	-0.05453	-0.02529	-0.00668	0.00236	0.00021
2.30400	0.00009	0.00146	0.00089	0.00208	0.00000	0.00000	-0.01317	-0.05453	-0.02529	-0.00668	0.00236	0.00021
2.30600	0.00009	0.00146	0.00089	0.00208	-3.96880	-89.82000	-0.01317	-0.05453	-0.02529	-0.00668	0.00236	0.00021
2.30800	0.00009	0.00146	0.00089	0.00208	-3.87860	-89.82000	-0.01317	-0.05453	-0.02529	-0.00668	0.00236	0.00021
2.31000	0.00074	0.00062	0.00096	0.00202	-3.78840	-89.91000	-0.01563	-0.04486	-0.02699	-0.01491	0.00658	0.00422
2.31200	0.00074	0.00062	0.00096	0.00202	-3.87860	-89.91000	-0.01563	-0.04486	-0.02699	-0.01491	0.00658	0.00422
2.31400	0.00074	0.00062	0.00096	0.00202	-3.96880	-89.91000	-0.01563	-0.04486	-0.02699	-0.01491	0.00658	0.00422
2.31600	0.00074	0.00062	0.00096	0.00202	-3.96880	-89.82000	-0.01563	-0.04486	-0.02699	-0.01491	0.00658	0.00422
2.31800	-0.00015	0.00200	0.00064	0.00240	0.00000	0.00000	-0.01697	-0.06410	-0.02838	-0.00905	0.00555	0.00350
2.32000	-0.00015	0.00200	0.00064	0.00240	-3.87860	-89.82000	-0.01697	-0.06410	-0.02838	-0.00905	0.00555	0.00350
2.32200	-0.00015	0.00200	0.00064	0.00240	-3.78840	-89.82000	-0.01697	-0.06410	-0.02838	-0.00905	0.00555	0.00350
2.32400	-0.00015	0.00200	0.00064	0.00240	-3.78840	-89.73000	-0.01697	-0.06410	-0.02838	-0.00905	0.00555	0.00350
2.32600	0.00007	0.00089	0.00070	0.00217	-3.96880	-89.73000	-0.00401	-0.03982	-0.02437	-0.00350	-0.00278	0.00195
2.32800	0.00007	0.00089	0.00070	0.00217	-3.96880	-89.73000	-0.00401	-0.03982	-0.02437	-0.00350	-0.00278	0.00195
2.33000	0.00007	0.00089	0.00070	0.00217	-3.96880	-89.82000	-0.00401	-0.03982	-0.02437	-0.00350	-0.00278	0.00195
2.33200	0.00007	0.00089	0.00070	0.00217	-3.87860	-89.73000	-0.00401	-0.03982	-0.02437	-0.00350	-0.00278	0.00195
2.33400	0.00033	0.00163	0.00076	0.00188	-3.87860	-89.73000	0.02592	-0.02140	-0.02838	-0.00391	-0.01347	0.00391
2.33600	0.00033	0.00163	0.00076	0.00188	-3.87860	-89.82000	0.02592	-0.02140	-0.02838	-0.00391	-0.01347	0.00391
2.33800	0.00033	0.00163	0.00076	0.00188	-3.87860	-89.82000	0.02592	-0.02140	-0.02838	-0.00391	-0.01347	0.00391
2.34000	0.00033	0.00163	0.00076	0.00188	0.00000	0.00000	0.02592	-0.02140	-0.02838	-0.00391	-0.01347	0.00391
2.34200	0.00129	0.00090	0.00063	0.00203	-3.87860	-89.82000	0.04690	-0.00833	-0.03131	-0.00627	-0.02416	0.00741
2.34400	0.00129	0.00090	0.00063	0.00203	-3.78840	-89.82000	0.04690	-0.00833	-0.03131	-0.00627	-0.02416	0.00741
2.34600	0.00129	0.00090	0.00063	0.00203	-3.78840	-89.82000	0.04690	-0.00833	-0.03131	-0.00627	-0.02416	0.00741
2.34800	0.00129	0.00090	0.00063	0.00203	-3.87860	-89.82000	0.04690	-0.00833	-0.03131	-0.00627	-0.02416	0.00741
2.35000	-0.00002	0.00172	0.00100	0.00099	-3.87860	-89.73000	0.09000	-0.01111	-0.05536	-0.00113	-0.02087	0.00000
2.35200	-0.00002	0.00172	0.00100	0.00099	-3.87860	-89.82000	0.09000	-0.01111	-0.05536	-0.00113	-0.02087	0.00000
2.35400	-0.00002	0.00172	0.00100	0.00099	-3.87860	-89.82000	0.09000	-0.01111	-0.05536	-0.00113	-0.02087	0.00000
2.35600	-0.00002	0.00172	0.00100	0.00099	-3.87860	-89.82000	0.09000	-0.01111	-0.05536	-0.00113	-0.02087	0.00000
2.35800	0.00043	0.00071	0.00076	0.00207	-3.87860	-89.82000	0.07540	-0.03796	-0.05490	-0.00720	-0.02673	0.00165
2.36000	0.00043	0.00071	0.00076	0.00207	-3.78840	-89.64000	0.07540	-0.03796	-0.05490	-0.00720	-0.02673	0.00165
2.36200	0.00043	0.00071	0.00076	0.00207	-3.78840	-89.73000	0.07540	-0.03796	-0.05490	-0.00720	-0.02673	0.00165
2.36400	0.00043	0.00071	0.00076	0.00207	-3.78840	-89.82000	0.07540	-0.03796	-0.05490	-0.00720	-0.02673	0.00165
2.36600	0.00028	0.00130	0.00040	0.00241	-3.78840	-89.73000	0.07550	-0.04990	-0.05906	-0.00679	-0.02066	0.00082
2.36800	0.00028	0.00130	0.00040	0.00241	-3.69820	-89.64000	0.07550	-0.04990	-0.05906	-0.00679	-0.02066	0.00082
2.37000	0.00028	0.00130	0.00040	0.00241	-3.69820	-89.73000	0.07550	-0.04990	-0.05906	-0.00679	-0.02066	0.00082
2.37200	0.00028	0.00130	0.00040	0.00241	-3.69820	-89.73000	0.07550	-0.04990	-0.05906	-0.00679	-0.02066	0.00082
2.37400	0.00059	0.00080	0.00112	0.00207	-3.60800	-89.73000	0.06511	-0.06718	-0.06076	-0.00545	-0.01840	-0.00237
2.37600	0.00059	0.00080	0.00112	0.00207	-3.60800	-89.73000	0.06511	-0.06718	-0.06076	-0.00545	-0.01840	-0.00237
2.37800	0.00059	0.00080	0.00112	0.00207	-3.78840	-89.73000	0.06511	-0.06718	-0.06076	-0.00545	-0.01840	-0.00237
2.38000	0.00059	0.00080	0.00112	0.00207	-3.69820	-89.82000	0.06511	-0.06718	-0.06076	-0.00545	-0.01840	-0.00237
2.38200	-0.00007	0.00161	0.00078	0.00218	-3.69820	-89.82000	0.02890	-0.07202	-0.04488	-0.00514	-0.01409	-0.00370
2.38400	-0.00007	0.00161	0.00078	0.00218	0.00000	0.00000	0.02890	-0.07202	-0.04488	-0.00514	-0.01409	-0.00370
2.38600	-0.00007	0.00161	0.00078	0.00218	-3.69820	-89.82000	0.02890	-0.07202	-0.04488	-0.00514	-0.01409	-0.00370
2.38800	-0.00007	0.00161	0.00078	0.00218	-3.69820	-89.82000	0.02890	-0.07202	-0.04488	-0.00514	-0.01409	-0.00370
2.39000	0.00057	0.00113	0.00098	0.00073	-3.51780	-89.73000	0.05030	-0.03241	-0.05598	-0.00638	-0.01182	-0.00206
2.39200	0.00057	0.00113	0.00098	0.00073	-3.60800	-89.73000	0.05030	-0.03241	-0.05598	-0.00638	-0.01182	-0.00206
2.39400	0.00057	0.00113	0.00098	0.00073	-3.60800	-89.64000	0.05030	-0.03241	-0.05598	-0.00638	-0.01182	-0.00206
2.39600	0.00057	0.00113	0.00098	0.00073	-3.69820	-89.64000	0.05030	-0.03241	-0.05598	-0.00638	-0.01182	-0.00206
2.39800	0.00045	0.00133	0.00056	0.00080	-3.78840	-89.73000	0.03291	-0.01687	-0.04565	0.00319	-0.01409	0.00010
2.40000	0.00045	0.00133	0.00056	0.00080	-3.87860	-89.64000	0.03291	-0.01687	-0.04565	0.00319	-0.01409	0.00010
2.40200	0.00045	0.00133	0.00056	0.00080	-3.87860	-89.64000	0.03291	-0.01687	-0.04565	0.00319	-0.01409	0.00010
2.40400	0.00045	0.00133	0.00056	0.00080	-3.96880	-89.73000	0.03291	-0.01687	-0.04565	0.00319	-0.01409	0.00010
2.40600	0.00004	0.00037	0.00075	0.00193	0.00000	0.00000	0.03477	-0.00669	-0.03285	0.00360	-0.01491	0.00329
2.40800	0.00004	0.00037	0.00075	0.00193	-3.87860	-89.91000	0.03477	-0.00669	-0.03285	0.00360	-0.01491	0.00329
2.41000	0.00004	0.00037	0.00075	0.00193	-3.87860	-89.82000	0.03477	-0.00669	-0.03285	0.00360	-0.01491	0.00329
2.41200	0.00004	0.00037	0.00075	0.00193	-3.78840	-89.73000	0.03477	-0.00669	-0.03285	0.00360	-0.01491	0.00329
2.41400	0.00015	0.00193	0.00045	0.00361	-3.78840	-89.73000	0.03075	0.01615	-0.03362	-0.00144	-0.01069	0.00391
2.41600	0.00015	0.00193	0.00045	0.00361	-3.78840	-89.64000	0.03075	0.01615	-0.03362	-0.00144	-0.01069	0.00391
2.41800	0.00015	0.00193	0.00045	0.00361	-3.78840	-89.55000	0.03075	0.01615	-0.03362	-0.00144	-0.01069	0.00391
2.42000	0.00015	0.00193	0.00045	0.00361	-3.78840	-89.64000	0.03075	0.01615	-0.03362	-0.00144	-0.01069	0.00391
2.42200	-0.00037	0.00060	0.00077	0.00208	-3.69820	-89.64000	0.02314	-0.00154	-0.04812	0.00535	-0.00956	0.00494
2.42400	-0.00037	0.00060	0.00077	0.00208	-3.69820	-89.73000	0.02314	-0.00154	-0.04812	0.00535	-0.00956	0.00494
2.42600	-0.00037	0.00060	0.00077	0.00208	-3.60800	-89.73000	0.02314	-0.00154	-0.04812	0.00535	-0.00956	0.00494
2.42800	-0.00037	0.00060	0.00077	0.00208	0.00000	0.00000	0.02314	-0.00154	-0.04812	0.00535	-0.00956	0.00494
2.43000	0.00101	0.00126	0.00061	0.00122	-3.78840	-89.64000	-0.00216	-0.02613	-0.04241	0.00288	-0.00298	0.00401
2.43200	0.00101	0.00126	0.00061	0.00122	-3.69820	-89.73000	-0.00216	-0.02613	-0.04241	0.00288	-0.00298	0.00401
2.43400	0.00101	0.00126	0.00061	0.00122	-3.60800	-89.73000	-0.00216	-0.02613	-0.04241	0.00288	-0.00298	0.00401
2.43600	0.00101	0.00126	0.00061	0.00122	-3.69820	-89.64000	-0.00216	-0.02613	-0.04241	0.00288	-0.00298	0.00401
2.43800	0.00032	0.00105	0.00080	0.00118	-3.69820	-89.64000	-0.03600	-0.01728	-0.03485	-0.00021	0.00339	0.00021
2.44000	0.00032	0.00105	0.00080	0.00118	-3.69820	-89.64000	-0.03600	-0.01728	-0.03485	-0.00021	0.00339	0.00021
2.44200	0.00032	0.00105	0.00080	0.00118	-3.69820	-89.64000	-0.03600	-0.01728	-0.03485	-0.00021	0.00339	0.00021
2.44400	0.00032	0.00105	0.00080	0.00118	-3.69820	-89.64000	-0.03600	-0.01728	-0.03485	-0.00021	0.00339	0.00021
2.44600	0.00020	0.00135	0.00090	0.00166	-3.69820	-89.73000	-0.03981	-0.04434	-0.03994	-0.00041	0.00925	0.00103
2.44800	0.00020	0.00135	0.00090	0.00166	-3.78840	-89.64000	-0.03981	-0.04434	-0.03994	-0.00041	0.00925	0.00103
2.45000	0.00020	0.00135	0.00090	0.00166	0.00000	0.00000	-0.03981	-0.04434	-0.03994	-0.00041	0.00925	0.00103
2.45200	0.00020	0.00135	0.00090	0.00166	-3.78840	-89.64000	-0.03981	-0.04434	-0.03994	-0.00041	0.00925	0.00103
2.45400	0.00051	0.00116	0.00084	0.00208	-3.87860	-89.73000	-0.03981	-0.04434	-0.03994	-0.00041	0.00925	0.00103
2.45600	-0.00009	0.00150	0.00125	0.00326	-3.96880	-89.73000	-0.05297	-0.04619	-0.02282	0.00103	0.01450	-0.00247
2.45800	-0.00009	0.00150	0.00125	0.00326	-4.05900	-89.73000	-0.05297	-0.04619	-0.02282	0.00103	0.01450	-0.00247
2.46000	-0.00009	0.00150	0.00125	0.00326	-3.96880	-89.73000	-0.05297	-0.04619	-0.02282	0.00103	0.01450	-0.00247
2.46200	-0.00009	0.00150	0.00125	0.00326	-3.78840	-89.64000	-0.05297	-0.04619	-0.02282	0.00103	0.01450	-0.00247
2.46400	0.00188	0.00100	0.00071	0.00327	0.00000	0.00000	-0.06603	0.02088	-0.01789	0.00555	0.00884	0.00195
2.46600	0.00188	0.00100	0.00071	0.00327	-3.69820	-89.64000	-0.06603	0.02088	-0.01789	0.00555	0.00884	0.00195
2.46800	0.00188	0.00100	0.00071	0.00327	-3.60800	-89.73000	-0.06603	0.02088	-0.01789	0.00555	0.00884	0.00195
2.47000	0.00188	0.00100	0.00071	0.00327	-3.87860	-90.00000	-0.06603	0.02088	-0.01789	0.00555	0.00884	0.00195
2.47200	-0.00028	0.00171	0.00083	0.00146	-3.87860	-90.00000	-0.02664	0.02407	-0.04025	0.00555	0.00607	0.00175
2.47400	-0.00028	0.00171	0.00083	0.00146	-3.87860	-89.91000	-0.02664	0.02407	-0.04025	0.00555	0.00607	0.00175
2.47600	-0.00028	0.00171	0.00083	0.00146	-3.87860	-89.82000	-0.02664	0.02407	-0.04025	0.00555	0.00607	0.00175
2.47800	-0.00028	0.00171	0.00083	0.00146	-3.78840	-89.82000	-0.02664	0.02407	-0.04025	0.00555	0.00607	0.00175
2.48000	-0.00001	0.00082	0.00050	0.00193	-3.87860	-89.82000	-0.02859	0.02202	-0.01619	0.00596	-0.00411	0.00247
2.48200	-0.00001	0.00082	0.00050	0.00193	-4.05900	-89.82000	-0.02859	0.02202	-0.01619	0.00596	-0.00411	0.00247
2.48400	-0.00001	0.00082	0.00050	0.00193	-3.96880	-89.73000	-0.02859	0.02202	-0.01619	0.00596	-0.00411	0.00247
2.48600	-0.00001	0.00082	0.00050	0.00193	0.00000	0.00000	-0.02859	0.02202	-0.01619	0.00596	-0.00411	0.00247
2.48800	0.00010	0.00157	0.00087	0.00177	-3.96880	-89.91000	-0.02859	0.02202	-0.01619	0.00596	-0.00411	0.00247
2.49000	0.00217	0.00090	0.00073	0.00177	-3.87860	-89.91000	0.00051	0.00278	-0.01558	-0.00113	-0.00565	0.00093
2.49200	0.00217	0.00090	0.00073	0.00177	-3.87860	-90.00000	0.00051	0.00278	-0.01558	-0.00113	-0.00565	0.00093
2.49400	0.00217	0.00090	0.00073	0.00177	-3.87860	-90.00000	0.00051	0.00278	-0.01558	-0.00113	-0.00565	0.00093
2.49600	0.00217	0.00090	0.00073	0.00177	-3.69820	-89.82000	0.00051	0.00278	-0.01558	-0.00113	-0.00565	0.00093
2.49800	0.00085	0.00112	0.00062	0.00265	-3.69820	-89.82000	0.03065	-0.05370	-0.02097	0.00144	-0.01018	-0.00514
2.50000	0.00005	0.00336	0.00056	0.00342	-3.78840	-89.73000	0.03065	-0.05370	-0.02097	0.00144	-0.01018	-0.00514
2.50200	0.00005	0.00336	0.00056	0.00342	-3.78840	-89.73000	0.03065	-0.05370	-0.02097	0.00144	-0.01018	-0.00514
2.50400	0.00005	0.00336	0.00056	0.00342	-3.78840	-89.64000	0.03065	-0.05370	-0.02097	0.00144	-0.01018	-0.00514
2.50600	0.00005	0.00336	0.00056	0.00342	-3.78840	-89.73000	0.03065	-0.05370	-0.02097	0.00144	-0.01018	-0.00514
2.50800	0.00048	0.00087	0.00057	0.00325	-3.78840	-89.82000	0.05883	-0.03961	-0.03424	-0.00103	-0.01429	-0.00309
2.51000	0.00048	0.00087	0.00057	0.00325	-3.78840	-89.82000	0.05883	-0.03961	-0.03424	-0.00103	-0.01429	-0.00309
2.51200	0.00048	0.00087	0.00057	0.00325	-3.78840	-89.82000	0.05883	-0.03961	-0.03424	-0.00103	-0.01429	-0.00309
2.51400	0.00048	0.00087	0.00057	0.00325	-3.78840	-89.73000	0.05883	-0.03961	-0.03424	-0.00103	-0.01429	-0.00309
2.51600	0.00033	0.00100	0.00098	0.00293	-3.78840	-89.64000	0.07663	-0.02644	-0.04981	-0.00144	-0.02395	0.00401
2.51800	0.00033	0.00100	0.00098	0.00293	-3.87860	-89.73000	0.07663	-0.02644	-0.04981	-0.00144	-0.02395	0.00401
2.52000	0.00033	0.00100	0.00098	0.00293	-3.69820	-89.73000	0.07663	-0.02644	-0.04981	-0.00144	-0.02395	0.00401
2.52200	0.00033	0.00100	0.00098	0.00293	0.00000	0.00000	0.07663	-0.02644	-0.04981	-0.00144	-0.02395	0.00401
2.52400	0.00149	0.00122	0.00085	0.00234	-3.60800	-89.64000	0.07025	-0.01852	-0.01666	-0.00154	-0.02498	0.00422
2.52600	0.00149	0.00122	0.00085	0.00234	-3.69820	-89.64000	0.07025	-0.01852	-0.01666	-0.00154	-0.02498	0.00422
2.52800	0.00149	0.00122	0.00085	0.00234	-3.51780	-89.73000	0.07025	-0.01852	-0.01666	-0.00154	-0.02498	0.00422
2.53000	0.00149	0.00122	0.00085	0.00234	-3.69820	-89.91000	0.07025	-0.01852	-0.01666	-0.00154	-0.02498	0.00422
2.53200	0.00059	0.00101	0.00057	0.00297	-3.69820	-89.91000	0.07786	0.01698	-0.01203	-0.00175	-0.02313	0.00648
2.53400	0.00059	0.00101	0.00057	0.00297	-3.78840	-89.91000	0.07786	0.01698	-0.01203	-0.00175	-0.02313	0.00648
2.53600	0.00059	0.00101	0.00057	0.00297	-3.87860	-89.82000	0.07786	0.01698	-0.01203	-0.00175	-0.02313	0.00648
2.53800	0.00059	0.00101	0.00057	0.00297	-3.78840	-89.82000	0.07786	0.01698	-0.01203	-0.00175	-0.02313	0.00648
2.54000	-0.00007	0.00095	0.00047	0.00259	-3.78840	-89.82000	0.04968	-0.01420	-0.03686	0.00216	-0.02406	0.00247
2.54200	-0.00007	0.00095	0.00047	0.00259	-3.78840	-89.82000	0.04968	-0.01420	-0.03686	0.00216	-0.02406	0.00247
2.54400	-0.00007	0.00095	0.00047	0.00259	-3.69820	-89.73000	0.04968	-0.01420	-0.03686	0.00216	-0.02406	0.00247
2.54600	-0.00007	0.00095	0.00047	0.00259	-3.78840	-89.82000	0.04968	-0.01420	-0.03686	0.00216	-0.02406	0.00247
2.54800	0.00015	0.00115	0.00099	0.00214	-3.78840	-89.82000	0.04495	-0.02603	-0.03346	-0.00360	-0.01265	0.00154
2.55000	0.00015	0.00115	0.00099	0.00214	-3.87860	-89.82000	0.04495	-0.02603	-0.03346	-0.00360	-0.01265	0.00154
2.55200	0.00015	0.00115	0.00099	0.00214	-3.87860	-89.82000	0.04495	-0.02603	-0.03346	-0.00360	-0.01265	0.00154
2.55400	0.00015	0.00115	0.00099	0.00214	-3.87860	-89.91000	0.04495	-0.02603	-0.03346	-0.00360	-0.01265	0.00154
2.55600	0.00104	0.00134	0.00071	0.00256	-3.87860	-89.91000	0.03847	-0.03148	-0.03300	-0.00237	-0.01162	-0.00226
2.55800	0.00104	0.00134	0.00071	0.00256	0.00000	0.00000	0.03847	-0.03148	-0.03300	-0.00237	-0.01162	-0.00226
2.56000	0.00104	0.00134	0.00071	0.00256	-3.87860	-89.91000	0.03847	-0.03148	-0.03300	-0.00237	-0.01162	-0.00226
2.56200	0.00104	0.00134	0.00071	0.00256	-3.96880	-89.82000	0.03847	-0.03148	-0.03300	-0.00237	-0.01162	-0.00226
2.56400	0.00012	0.00106	0.00085	0.00263	-3.96880	-89.73000	0.03847	-0.03148	-0.03300	-0.00237	-0.01162	-0.00226
2.56600	0.00128	0.00269	0.00075	0.00154	-3.87860	-89.64000	0.01800	-0.05504	-0.03023	-0.00298	-0.00740	0.00267
2.56800	0.00128	0.00269	0.00075	0.00154	-3.78840	-89.73000	0.01800	-0.05504	-0.03023	-0.00298	-0.00740	0.00267
2.57000	0.00128	0.00269	0.00075	0.00154	-3.87860	-89.82000	0.01800	-0.05504	-0.03023	-0.00298	-0.00740	0.00267
2.57200	0.00128	0.00269	0.00075	0.00154	-3.87860	-89.73000	0.01800	-0.05504	-0.03023	-0.00298	-0.00740	0.00267
2.57400	-0.00004	0.00051	0.00092	0.00133	-3.96880	-89.82000	0.01800	-0.05504	-0.03023	-0.00298	-0.00740	0.00267
2.57600	-0.00066	0.00046	0.00123	0.00134	-3.78840	-89.82000	0.03723	-0.03313	-0.01080	-0.00524	-0.00298	0.00021
2.57800	-0.00066	0.00046	0.00123	0.00134	-3.78840	-89.91000	0.03723	-0.03313	-0.01080	-0.00524	-0.00298	0.00021
2.58000	-0.00066	0.00046	0.00123	0.00134	-3.78840	-89.82000	0.03723	-0.03313	-0.01080	-0.00524	-0.00298	0.00021
2.58200	-0.00066	0.00046	0.00123	0.00134	-3.87860	-89.82000	0.03723	-0.03313	-0.01080	-0.00524	-0.00298	0.00021
2.58400	0.00037	0.00206	0.00061	0.00276	-3.87860	-89.91000	0.01049	-0.04249	-0.01527	-0.00566	-0.00853	0.00072
2.58600	0.00037	0.00206	0.00061	0.00276	-3.69820	-89.82000	0.01049	-0.04249	-0.01527	-0.00566	-0.00853	0.00072
2.58800	0.00037	0.00206	0.00061	0.00276	-3.78840	-89.73000	0.01049	-0.04249	-0.01527	-0.00566	-0.00853	0.00072
2.59000	0.00037	0.00206	0.00061	0.00276	-3.87860	-89.73000	0.01049	-0.04249	-0.01527	-0.00566	-0.00853	0.00072
2.59200	0.00063	0.00052	0.00081	0.00265	-3.78840	-89.73000	0.02993	-0.04619	-0.02144	-0.00401	-0.00843	-0.00442
2.59400	0.00063	0.00052	0.00081	0.00265	0.00000	0.00000	0.02993	-0.04619	-0.02144	-0.00401	-0.00843	-0.00442
2.59600	0.00063	0.00052	0.00081	0.00265	-3.78840	-89.73000	0.02993	-0.04619	-0.02144	-0.00401	-0.00843	-0.00442
2.59800	0.00063	0.00052	0.00081	0.00265	-3.78840	-89.73000	0.02993	-0.04619	-0.02144	-0.00401	-0.00843	-0.00442
2.60000	0.00002	0.00279	0.00069	0.00266	-3.78840	-89.82000	-0.01481	-0.04208	-0.00941	-0.00823	-0.00195	-0.00761
2.60200	0.00002	0.00279	0.00069	0.00266	-3.78840	-89.73000	-0.01481	-0.04208	-0.00941	-0.00823	-0.00195	-0.00761
2.60400	0.00002	0.00279	0.00069	0.00266	-3.69820	-89.91000	-0.01481	-0.04208	-0.00941	-0.00823	-0.00195	-0.00761
2.60600	0.00002	0.00279	0.00069	0.00266	-3.78840	-89.82000	-0.01481	-0.04208	-0.00941	-0.00823	-0.00195	-0.00761
2.60800	0.00071	0.00083	0.00108	0.00270	-3.78840	-89.91000	-0.02222	-0.03323	-0.02020	-0.00494	0.00689	0.00165
2.61000	0.00071	0.00083	0.00108	0.00270	-3.78840	-89.91000	-0.02222	-0.03323	-0.02020	-0.00494	0.00689	0.00165
2.61200	0.00071	0.00083	0.00108	0.00270	-3.87860	-89.91000	-0.02222	-0.03323	-0.02020	-0.00494	0.00689	0.00165
2.61400	0.00071	0.00083	0.00108	0.00270	-3.78840	-89.82000	-0.02222	-0.03323	-0.02020	-0.00494	0.00689	0.00165
2.61600	0.00076	0.00176	0.00086	0.00237	-3.87860	-89.82000	-0.00370	-0.01698	-0.02437	-0.00617	0.00288	0.00206
2.61800	0.00076	0.00176	0.00086	0.00237	-3.96880	-89.91000	-0.00370	-0.01698	-0.02437	-0.00617	0.00288	0.00206
2.62000	0.00076	0.00176	0.00086	0.00237	-3.87860	-89.82000	-0.00370	-0.01698	-0.02437	-0.00617	0.00288	0.00206
2.62200	0.00076	0.00176	0.00086	0.00237	-3.87860	-89.64000	-0.00370	-0.01698	-0.02437	-0.00617	0.00288	0.00206
2.62400	0.00049	0.00077	0.00106	0.00199	-3.78840	-89.55000	-0.01399	-0.02027	-0.02653	-0.00031	0.00134	0.00237
2.62600	0.00049	0.00077	0.00106	0.00199	-3.87860	-89.73000	-0.01399	-0.02027	-0.02653	-0.00031	0.00134	0.00237
2.62800	0.00049	0.00077	0.00106	0.00199	-3.87860	-89.55000	-0.01399	-0.02027	-0.02653	-0.00031	0.00134	0.00237
2.63000	0.00049	0.00077	0.00106	0.00199	-3.87860	-89.55000	-0.01399	-0.02027	-0.02653	-0.00031	0.00134	0.00237
2.63200	0.00011	0.00166	0.00085	0.00229	-3.87860	-89.64000	0.00730	-0.02222	-0.07880	-0.00689	-0.00308	0.00082
2.63400	0.00011	0.00166	0.00085	0.00229	-3.87860	-89.64000	0.00730	-0.02222	-0.07880	-0.00689	-0.00308	0.00082
2.63600	0.00011	0.00166	0.00085	0.00229	0.00000	0.00000	0.00730	-0.02222	-0.07880	-0.00689	-0.00308	0.00082
2.63800	0.00011	0.00166	0.00085	0.00229	-3.87860	-89.64000	0.00730	-0.02222	-0.07880	-0.00689	-0.00308	0.00082
2.64000	0.00020	0.00073	0.00104	0.00230	-3.78840	-89.73000	0.01954	-0.04763	-0.05613	-0.00710	-0.01049	0.00555
2.64200	0.00020	0.00073	0.00104	0.00230	-3.69820	-89.73000	0.01954	-0.04763	-0.05613	-0.00710	-0.01049	0.00555
2.64400	0.00020	0.00073	0.00104	0.00230	-3.69820	-89.82000	0.01954	-0.04763	-0.05613	-0.00710	-0.01049	0.00555
2.64600	0.00020	0.00073	0.00104	0.00230	-3.69820	-89.82000	0.01954	-0.04763	-0.05613	-0.00710	-0.01049	0.00555
2.64800	0.00119	0.00152	0.00123	0.00246	-3.69820	-89.82000	0.02427	-0.05484	-0.04195	-0.00997	-0.00463	-0.00247
2.65000	0.00119	0.00152	0.00123	0.00246	-3.69820	-89.82000	0.02427	-0.05484	-0.04195	-0.00997	-0.00463	-0.00247
2.65200	0.00119	0.00152	0.00123	0.00246	-3.69820	-89.73000	0.02427	-0.05484	-0.04195	-0.00997	-0.00463	-0.00247
2.65400	0.00119	0.00152	0.00123	0.00246	-3.78840	-89.82000	0.02427	-0.05484	-0.04195	-0.00997	-0.00463	-0.00247
2.65600	0.00046	0.00082	0.00080	0.00222	-3.78840	-89.73000	0.02777	-0.06780	-0.03501	-0.01244	-0.00956	0.00267
2.65800	0.00046	0.00082	0.00080	0.00222	-3.78840	-89.82000	0.02777	-0.06780	-0.03501	-0.01244	-0.00956	0.00267
2.66000	0.00046	0.00082	0.00080	0.00222	-3.69820	-89.82000	0.02777	-0.06780	-0.03501	-0.01244	-0.00956	0.00267
2.66200	0.00046	0.00082	0.00080	0.00222	-3.69820	-89.73000	0.02777	-0.06780	-0.03501	-0.01244	-0.00956	0.00267
2.66400	-0.00006	0.00121	0.00090	0.00220	-3.69820	-89.73000	0.00339	-0.05525	-0.02930	-0.00648	-0.00658	0.00072
2.66600	-0.00006	0.00121	0.00090	0.00220	-3.69820	-89.64000	0.00339	-0.05525	-0.02930	-0.00648	-0.00658	0.00072
2.66800	-0.00006	0.00121	0.00090	0.00220	-3.78840	-89.64000	0.00339	-0.05525	-0.02930	-0.00648	-0.00658	0.00072
2.67000	-0.00006	0.00121	0.00090	0.00220	-3.87860	-89.64000	0.00339	-0.05525	-0.02930	-0.00648	-0.00658	0.00072
2.67200	0.00063	0.00134	0.00073	0.00183	-3.87860	-89.73000	0.00339	-0.05525	-0.02930	-0.00648	-0.00658	0.00072
2.67400	0.00032	0.00217	0.00132	0.00201	-3.96880	-89.82000	0.00278	-0.04444	-0.03115	-0.00134	-0.00226	-0.00309
2.67600	0.00032	0.00217	0.00132	0.00201	-3.87860	-89.82000	0.00278	-0.04444	-0.03115	-0.00134	-0.00226	-0.00309
2.67800	0.00032	0.00217	0.00132	0.00201	-3.87860	-89.82000	0.00278	-0.04444	-0.03115	-0.00134	-0.00226	-0.00309
2.68000	0.00032	0.00217	0.00132	0.00201	0.00000	0.00000	0.00278	-0.04444	-0.03115	-0.00134	-0.00226	-0.00309
2.68200	0.00124	0.00098	0.00109	0.00184	-3.96880	-89.64000	-0.04330	-0.07171	-0.04750	-0.01080	0.00226	-0.00185
2.68400	0.00124	0.00098	0.00109	0.00184	-4.05900	-89.55000	-0.04330	-0.07171	-0.04750	-0.01080	0.00226	-0.00185
2.68600	0.00124	0.00098	0.00109	0.00184	-3.96880	-89.64000	-0.04330	-0.07171	-0.04750	-0.01080	0.00226	-0.00185
2.68800	0.00124	0.00098	0.00109	0.00184	-3.87860	-89.64000	-0.04330	-0.07171	-0.04750	-0.01080	0.00226	-0.00185
2.69000	0.00068	0.00221	0.00083	0.00220	-3.78840	-89.73000	-0.01944	-0.05432	-0.03346	-0.00782	0.00051	-0.00123
2.69200	0.00068	0.00221	0.00083	0.00220	-3.78840	-89.73000	-0.01944	-0.05432	-0.03346	-0.00782	0.00051	-0.00123
2.69400	0.00068	0.00221	0.00083	0.00220	0.00000	0.00000	-0.01944	-0.05432	-0.03346	-0.00782	0.00051	-0.00123
2.69600	0.00068	0.00221	0.00083	0.00220	-3.87860	-89.73000	-0.01944	-0.05432	-0.03346	-0.00782	0.00051	-0.00123
2.69800	0.00021	0.00101	0.00077	0.00295	-3.87860	-89.73000	0.00237	-0.04907	-0.04719	-0.01069	0.00267	0.00134
2.70000	0.00021	0.00101	0.00077	0.00295	-4.05900	-89.73000	0.00237	-0.04907	-0.04719	-0.01069	0.00267	0.00134
2.70200	0.00021	0.00101	0.00077	0.00295	0.00000	0.00000	0.00237	-0.04907	-0.04719	-0.01069	0.00267	0.00134
2.70400	0.00021	0.00101	0.00077	0.00295	-3.96880	-89.73000	0.00237	-0.04907	-0.04719	-0.01069	0.00267	0.00134
2.70600	-0.00013	0.00228	0.00060	0.00277	-3.69820	-89.73000	0.00895	-0.00648	-0.05660	-0.00463	-0.00812	0.00185
2.70800	-0.00013	0.00228	0.00060	0.00277	-3.69820	-89.82000	0.00895	-0.00648	-0.05660	-0.00463	-0.00812	0.00185
2.71000	-0.00013	0.00228	0.00060	0.00277	-3.69820	-89.91000	0.00895	-0.00648	-0.05660	-0.00463	-0.00812	0.00185
2.71200	-0.00013	0.00228	0.00060	0.00277	-3.60800	-89.82000	0.00895	-0.00648	-0.05660	-0.00463	-0.00812	0.00185
2.71400	0.00148	0.00045	0.00078	0.00216	-3.69820	-89.82000	0.05626	0.00216	-0.05259	-0.00617	-0.01511	0.00453
2.71600	0.00148	0.00045	0.00078	0.00216	-3.78840	-89.82000	0.05626	0.00216	-0.05259	-0.00617	-0.01511	0.00453
2.71800	0.00148	0.00045	0.00078	0.00216	-3.78840	-89.73000	0.05626	0.00216	-0.05259	-0.00617	-0.01511	0.00453
2.72000	0.00148	0.00045	0.00078	0.00216	-3.87860	-89.73000	0.05626	0.00216	-0.05259	-0.00617	-0.01511	0.00453
2.72200	-0.00021	0.00163	0.00086	0.00194	-3.96880	-89.73000	0.06161	-0.05093	-0.02113	-0.01440	-0.02159	0.00771
2.72400	-0.00021	0.00163	0.00086	0.00194	0.00000	0.00000	0.06161	-0.05093	-0.02113	-0.01440	-0.02159	0.00771
2.72600	-0.00021	0.00163	0.00086	0.00194	-3.87860	-89.73000	0.06161	-0.05093	-0.02113	-0.01440	-0.02159	0.00771
2.72800	-0.00021	0.00163	0.00086	0.00194	-3.78840	-89.73000	0.06161	-0.05093	-0.02113	-0.01440	-0.02159	0.00771
2.73000	0.00055	0.00096	0.00066	0.00165	-3.78840	-89.73000	0.07519	-0.04887	-0.01450	-0.01018	-0.01748	0.00648
2.73200	0.00055	0.00096	0.00066	0.00165	-3.87860	-89.82000	0.07519	-0.04887	-0.01450	-0.01018	-0.01748	0.00648
2.73400	0.00055	0.00096	0.00066	0.00165	-3.87860	-89.82000	0.07519	-0.04887	-0.01450	-0.01018	-0.01748	0.00648
2.73600	0.00055	0.00096	0.00066	0.00165	-3.87860	-89.73000	0.07519	-0.04887	-0.01450	-0.01018	-0.01748	0.00648
2.73800	-0.00055	0.00165	0.00139	0.00213	-3.96880	-89.64000	0.06192	-0.06420	-0.01866	-0.00761	-0.01254	0.00195
2.74000	-0.00055	0.00165	0.00139	0.00213	-3.87860	-89.73000	0.06192	-0.06420	-0.01866	-0.00761	-0.01254	0.00195
2.74200	-0.00055	0.00165	0.00139	0.00213	-3.69820	-89.82000	0.06192	-0.06420	-0.01866	-0.00761	-0.01254	0.00195
2.74400	-0.00055	0.00165	0.00139	0.00213	-3.78840	-89.82000	0.06192	-0.06420	-0.01866	-0.00761	-0.01254	0.00195
2.74600	0.00239	0.00052	0.00096	0.00345	-3.78840	-89.82000	0.04207	-0.08817	-0.02329	-0.01296	-0.01439	0.00761
2.74800	0.00239	0.00052	0.00096	0.00345	-3.78840	-89.91000	0.04207	-0.08817	-0.02329	-0.01296	-0.01439	0.00761
2.75000	0.00239	0.00052	0.00096	0.00345	-3.78840	-89.91000	0.04207	-0.08817	-0.02329	-0.01296	-0.01439	0.00761
2.75200	0.00239	0.00052	0.00096	0.00345	-3.78840	-89.82000	0.04207	-0.08817	-0.02329	-0.01296	-0.01439	0.00761
2.75400	-0.00022	0.00177	0.00078	0.00217	-3.69820	-89.82000	0.04104	-0.06852	-0.02252	-0.01501	-0.01265	0.00267
2.75600	-0.00022	0.00177	0.00078	0.00217	-3.69820	-89.73000	0.04104	-0.06852	-0.02252	-0.01501	-0.01265	0.00267
2.75800	-0.00022	0.00177	0.00078	0.00217	-3.69820	-89.73000	0.04104	-0.06852	-0.02252	-0.01501	-0.01265	0.00267
2.76000	-0.00022	0.00177	0.00078	0.00217	-3.69820	-89.73000	0.04104	-0.06852	-0.02252	-0.01501	-0.01265	0.00267
2.76200	-0.00028	0.00065	0.00085	0.00125	-3.60800	-89.73000	0.01831	-0.08498	-0.01835	-0.01522	-0.00771	-0.00165
2.76400	-0.00028	0.00065	0.00085	0.00125	-3.60800	-89.73000	0.01831	-0.08498	-0.01835	-0.01522	-0.00771	-0.00165
2.76600	-0.00028	0.00065	0.00085	0.00125	-3.51780	-89.73000	0.01831	-0.08498	-0.01835	-0.01522	-0.00771	-0.00165
2.76800	-0.00028	0.00065	0.00085	0.00125	-3.69820	-89.64000	0.01831	-0.08498	-0.01835	-0.01522	-0.00771	-0.00165
2.77000	-0.00034	0.00172	0.00098	0.00106	-3.69820	-89.64000	0.01574	-0.04722	-0.03516	-0.00401	-0.00154	-0.00226
2.77200	-0.00034	0.00172	0.00098	0.00106	-3.69820	-89.73000	0.01574	-0.04722	-0.03516	-0.00401	-0.00154	-0.00226
2.77400	-0.00034	0.00172	0.00098	0.00106	-3.69820	-89.82000	0.01574	-0.04722	-0.03516	-0.00401	-0.00154	-0.00226
2.77600	-0.00034	0.00172	0.00098	0.00106	-3.78840	-89.82000	0.01574	-0.04722	-0.03516	-0.00401	-0.00154	-0.00226
2.77800	0.00212	0.00107	0.00064	0.00149	-3.69820	-89.82000	0.02479	-0.02706	-0.04549	-0.00350	-0.00432	-0.00411
2.78000	0.00212	0.00107	0.00064	0.00149	0.00000	0.00000	0.02479	-0.02706	-0.04549	-0.00350	-0.00432	-0.00411
2.78200	0.00212	0.00107	0.00064	0.00149	0.00000	0.00000	0.02479	-0.02706	-0.04549	-0.00350	-0.00432	-0.00411
2.78400	0.00212	0.00107	0.00064	0.00149	-3.78840	-89.73000	0.02479	-0.02706	-0.04549	-0.00350	-0.00432	-0.00411
2.78600	0.00033	0.00168	0.00097	0.00237	-3.69820	-89.82000	0.03425	-0.04218	-0.01141	-0.00751	-0.01008	-0.00360
2.78800	0.00033	0.00168	0.00097	0.00237	-3.78840	-89.73000	0.03425	-0.04218	-0.01141	-0.00751	-0.01008	-0.00360
2.79000	0.00033	0.00168	0.00097	0.00237	-3.78840	-89.82000	0.03425	-0.04218	-0.01141	-0.00751	-0.01008	-0.00360
2.79200	0.00033	0.00168	0.00097	0.00237	-3.69820	-89.73000	0.03425	-0.04218	-0.01141	-0.00751	-0.01008	-0.00360
2.79400	-0.00032	0.00063	0.00082	0.00266	-3.78840	-89.82000	0.04937	-0.04990	-0.01758	-0.00432	-0.01573	-0.00072
2.79600	-0.00032	0.00063	0.00082	0.00266	-3.96880	-89.73000	0.04937	-0.04990	-0.01758	-0.00432	-0.01573	-0.00072
2.79800	-0.00032	0.00063	0.00082	0.00266	-3.87860	-89.73000	0.04937	-0.04990	-0.01758	-0.00432	-0.01573	-0.00072
2.80000	-0.00032	0.00063	0.00082	0.00266	-3.78840	-89.73000	0.04937	-0.04990	-0.01758	-0.00432	-0.01573	-0.00072
2.80200	-0.00034	0.00219	0.00070	0.00196	-3.78840	-89.73000	0.02613	-0.06584	-0.00416	-0.00751	-0.00884	0.00000
2.80400	-0.00034	0.00219	0.00070	0.00196	0.00000	0.00000	0.02613	-0.06584	-0.00416	-0.00751	-0.00884	0.00000
2.80600	-0.00034	0.00219	0.00070	0.00196	-3.78840	-89.73000	0.02613	-0.06584	-0.00416	-0.00751	-0.00884	0.00000
2.80800	-0.00034	0.00219	0.00070	0.00196	-3.78840	-89.73000	0.02613	-0.06584	-0.00416	-0.00751	-0.00884	0.00000
2.81000	0.00196	0.00096	0.00063	0.00140	-3.87860	-89.82000	0.01522	-0.03992	-0.00386	-0.00730	-0.00360	0.00370
2.81200	0.00196	0.00096	0.00063	0.00140	-3.87860	-89.73000	0.01522	-0.03992	-0.00386	-0.00730	-0.00360	0.00370
2.81400	0.00196	0.00096	0.00063	0.00140	-3.96880	-89.73000	0.01522	-0.03992	-0.00386	-0.00730	-0.00360	0.00370
2.81600	0.00196	0.00096	0.00063	0.00140	-3.87860	-89.73000	0.01522	-0.03992	-0.00386	-0.00730	-0.00360	0.00370
2.81800	0.00033	0.00213	0.00071	0.00142	-3.78840	-89.73000	-0.00874	-0.01893	-0.01650	-0.00308	0.00308	0.00401
2.82000	0.00033	0.00213	0.00071	0.00142	-3.69820	-89.73000	-0.00874	-0.01893	-0.01650	-0.00308	0.00308	0.00401
2.82200	0.00033	0.00213	0.00071	0.00142	-3.60800	-89.73000	-0.00874	-0.01893	-0.01650	-0.00308	0.00308	0.00401
2.82400	0.00033	0.00213	0.00071	0.00142	-3.69820	-89.73000	-0.00874	-0.01893	-0.01650	-0.00308	0.00308	0.00401
2.82600	-0.00045	0.00073	0.00089	0.00167	0.00000	0.00000	-0.05081	-0.02233	-0.02221	0.00144	0.00103	0.00843
2.82800	-0.00045	0.00073	0.00089	0.00167	-3.69820	-89.82000	-0.05081	-0.02233	-0.02221	0.00144	0.00103	0.00843
2.83000	-0.00045	0.00073	0.00089	0.00167	-3.69820	-89.73000	-0.05081	-0.02233	-0.02221	0.00144	0.00103	0.00843
2.83200	-0.00045	0.00073	0.00089	0.00167	-3.69820	-89.73000	-0.05081	-0.02233	-0.02221	0.00144	0.00103	0.00843
2.83400	0.00024	0.00237	0.00056	0.00235	-3.69820	-89.82000	-0.04279	-0.02325	-0.03177	-0.00401	0.01203	0.00730
2.83600	0.00024	0.00237	0.00056	0.00235	-3.78840	-89.73000	-0.04279	-0.02325	-0.03177	-0.00401	0.01203	0.00730
2.83800	0.00024	0.00237	0.00056	0.00235	-3.87860	-89.73000	-0.04279	-0.02325	-0.03177	-0.00401	0.01203	0.00730
2.84000	0.00024	0.00237	0.00056	0.00235	0.00000	0.00000	-0.04279	-0.02325	-0.03177	-0.00401	0.01203	0.00730
2.84200	0.00118	0.00137	0.00070	0.00243	-3.87860	-89.82000	-0.06110	-0.03148	-0.03840	-0.00514	0.00781	0.00669
2.84400	0.00118	0.00137	0.00070	0.00243	-3.87860	-89.73000	-0.06110	-0.03148	-0.03840	-0.00514	0.00781	0.00669
2.84600	0.00118	0.00137	0.00070	0.00243	-3.78840	-89.73000	-0.06110	-0.03148	-0.03840	-0.00514	0.00781	0.00669
2.84800	0.00118	0.00137	0.00070	0.00243	-3.78840	-89.73000	-0.06110	-0.03148	-0.03840	-0.00514	0.00781	0.00669
2.85000	0.00030	0.00221	0.00105	0.00194	-3.87860	-89.73000	-0.06110	-0.03148	-0.03840	-0.00514	0.00781	0.00669
2.85200	-0.00043	0.00105	0.00099	0.00104	-3.87860	-89.73000	-0.04042	-0.01430	-0.05058	-0.00165	0.00936	-0.00031
2.85400	-0.00043	0.00105	0.00099	0.00104	-3.87860	-89.82000	-0.04042	-0.01430	-0.05058	-0.00165	0.00936	-0.00031
2.85600	-0.00043	0.00105	0.00099	0.00104	-3.78840	-89.73000	-0.04042	-0.01430	-0.05058	-0.00165	0.00936	-0.00031
2.85800	-0.00043	0.00105	0.00099	0.00104	-3.87860	-89.73000	-0.04042	-0.01430	-0.05058	-0.00165	0.00936	-0.00031
2.86000	0.00006	0.00152	0.00106	0.00096	-3.87860	-89.73000	0.00874	-0.00134	-0.04472	0.00093	-0.00936	0.00730
2.86200	0.00006	0.00152	0.00106	0.00096	-3.87860	-89.64000	0.00874	-0.00134	-0.04472	0.00093	-0.00936	0.00730
2.86400	0.00006	0.00152	0.00106	0.00096	-3.78840	-89.73000	0.00874	-0.00134	-0.04472	0.00093	-0.00936	0.00730
2.86600	0.00006	0.00152	0.00106	0.00096	-3.78840	-89.91000	0.00874	-0.00134	-0.04472	0.00093	-0.00936	0.00730
2.86800	0.00140	0.00179	0.00051	0.00139	-3.78840	-89.91000	0.04701	-0.01214	-0.03917	0.00864	-0.02128	-0.00051
2.87000	0.00140	0.00179	0.00051	0.00139	-3.69820	-89.82000	0.04701	-0.01214	-0.03917	0.00864	-0.02128	-0.00051
2.87200	0.00140	0.00179	0.00051	0.00139	-3.60800	-89.73000	0.04701	-0.01214	-0.03917	0.00864	-0.02128	-0.00051
2.87400	0.00140	0.00179	0.00051	0.00139	-3.78840	-89.73000	0.04701	-0.01214	-0.03917	0.00864	-0.02128	-0.00051
2.87600	0.00011	0.00105	0.00084	0.00198	0.00000	0.00000	0.07858	-0.02058	-0.03871	-0.00226	-0.02478	0.00257
2.87800	0.00011	0.00105	0.00084	0.00198	-3.87860	-89.73000	0.07858	-0.02058	-0.03871	-0.00226	-0.02478	0.00257
2.88000	0.00011	0.00105	0.00084	0.00198	-3.78840	-89.73000	0.07858	-0.02058	-0.03871	-0.00226	-0.02478	0.00257
2.88200	0.00011	0.00105	0.00084	0.00198	-3.78840	-89.73000	0.07858	-0.02058	-0.03871	-0.00226	-0.02478	0.00257
2.88400	-0.00027	0.00094	0.00093	0.00253	-3.78840	-89.73000	0.06634	-0.04383	-0.02946	-0.00216	-0.01902	-0.00278
2.88600	-0.00027	0.00094	0.00093	0.00253	-3.69820	-89.73000	0.06634	-0.04383	-0.02946	-0.00216	-0.01902	-0.00278
2.88800	-0.00027	0.00094	0.00093	0.00253	-3.78840	-89.73000	0.06634	-0.04383	-0.02946	-0.00216	-0.01902	-0.00278
2.89000	-0.00027	0.00094	0.00093	0.00253	-3.78840	-89.64000	0.06634	-0.04383	-0.02946	-0.00216	-0.01902	-0.00278
2.89200	0.00039	0.00163	0.00086	0.00190	-3.78840	-89.73000	0.07704	-0.03735	-0.03562	-0.00144	-0.01789	-0.00267
2.89400	0.00039	0.00163	0.00086	0.00190	-3.87860	-89.73000	0.07704	-0.03735	-0.03562	-0.00144	-0.01789	-0.00267
2.89600	0.00039	0.00163	0.00086	0.00190	-3.78840	-89.82000	0.07704	-0.03735	-0.03562	-0.00144	-0.01789	-0.00267
2.89800	0.00039	0.00163	0.00086	0.00190	0.00000	0.00000	0.07704	-0.03735	-0.03562	-0.00144	-0.01789	-0.00267
2.90000	0.00183	0.00078	0.00079	0.00141	-3.69820	-89.82000	0.05472	-0.02788	-0.05089	0.00483	-0.01367	-0.00411
2.90200	0.00071	0.00043	0.00118	0.00219	-3.69820	-89.73000	0.05472	-0.02788	-0.05089	0.00483	-0.01367	-0.00411
2.90400	0.00071	0.00043	0.00118	0.00219	-3.69820	-89.73000	0.05472	-0.02788	-0.05089	0.00483	-0.01367	-0.00411
2.90600	0.00071	0.00043	0.00118	0.00219	-3.78840	-89.73000	0.05472	-0.02788	-0.05089	0.00483	-0.01367	-0.00411
2.90800	0.00071	0.00043	0.00118	0.00219	-3.78840	-89.82000	0.05472	-0.02788	-0.05089	0.00483	-0.01367	-0.00411
2.91000	-0.00016	0.00187	0.00070	0.00213	-3.78840	-89.73000	0.02541	0.00916	-0.05799	0.00566	-0.01254	0.00442
2.91200	-0.00016	0.00187	0.00070	0.00213	-3.78840	-89.64000	0.02541	0.00916	-0.05799	0.00566	-0.01254	0.00442
2.91400	-0.00016	0.00187	0.00070	0.00213	-3.87860	-89.64000	0.02541	0.00916	-0.05799	0.00566	-0.01254	0.00442
2.91600	-0.00016	0.00187	0.00070	0.00213	-3.87860	-89.73000	0.02541	0.00916	-0.05799	0.00566	-0.01254	0.00442
2.91800	0.00004	0.00132	0.00069	0.00186	-3.69820	-89.73000	0.02294	-0.00175	-0.04889	0.00442	-0.01110	0.00627
2.92000	0.00004	0.00132	0.00069	0.00186	-3.78840	-89.73000	0.02294	-0.00175	-0.04889	0.00442	-0.01110	0.00627
2.92200	0.00004	0.00132	0.00069	0.00186	-3.78840	-89.64000	0.02294	-0.00175	-0.04889	0.00442	-0.01110	0.00627
2.92400	0.00004	0.00132	0.00069	0.00186	-3.78840	-89.64000	0.02294	-0.00175	-0.04889	0.00442	-0.01110	0.00627
2.92600	0.00002	0.00204	0.00067	0.00214	-3.78840	-89.64000	0.00216	-0.02665	-0.04226	-0.00123	-0.00298	0.00422
2.92800	0.00002	0.00204	0.00067	0.00214	-3.78840	-89.64000	0.00216	-0.02665	-0.04226	-0.00123	-0.00298	0.00422
2.93000	0.00002	0.00204	0.00067	0.00214	-3.87860	-89.73000	0.00216	-0.02665	-0.04226	-0.00123	-0.00298	0.00422
2.93200	0.00002	0.00204	0.00067	0.00214	-3.87860	-89.73000	0.00216	-0.02665	-0.04226	-0.00123	-0.00298	0.00422
2.93400	0.00155	0.00105	0.00078	0.00183	-3.87860	-89.64000	0.00216	-0.02665	-0.04226	-0.00123	-0.00298	0.00422
2.93600	0.00050	0.00089	0.00224	0.00199	-3.96880	-89.73000	0.01358	-0.01862	-0.04565	0.00267	-0.00607	0.00391
2.93800	0.00050	0.00089	0.00224	0.00199	0.00000	0.00000	0.01358	-0.01862	-0.04565	0.00267	-0.00607	0.00391
2.94000	0.00050	0.00089	0.00224	0.00199	-3.60800	-89.91000	0.01358	-0.01862	-0.04565	0.00267	-0.00607	0.00391
2.94200	0.00050	0.00089	0.00224	0.00199	-3.60800	-89.82000	0.01358	-0.01862	-0.04565	0.00267	-0.00607	0.00391
2.94400	0.00041	0.00201	0.00054	0.00137	-3.69820	-89.82000	0.00103	-0.02829	-0.02622	0.00216	-0.00740	0.00319
2.94600	0.00041	0.00201	0.00054	0.00137	-3.69820	-89.73000	0.00103	-0.02829	-0.02622	0.00216	-0.00740	0.00319
2.94800	0.00041	0.00201	0.00054	0.00137	-3.60800	-89.82000	0.00103	-0.02829	-0.02622	0.00216	-0.00740	0.00319
2.95000	0.00041	0.00201	0.00054	0.00137	-3.69820	-89.91000	0.00103	-0.02829	-0.02622	0.00216	-0.00740	0.00319
2.95200	-0.00009	0.00000	0.00074	0.00158	-3.78840	-89.91000	0.02427	-0.00576	-0.01696	-0.00185	-0.00792	0.00422
2.95400	-0.00009	0.00000	0.00074	0.00158	-3.69820	-90.00000	0.02427	-0.00576	-0.01696	-0.00185	-0.00792	0.00422
2.95600	-0.00009	0.00000	0.00074	0.00158	-3.78840	-89.82000	0.02427	-0.00576	-0.01696	-0.00185	-0.00792	0.00422
2.95800	-0.00009	0.00000	0.00074	0.00158	-3.69820	-89.82000	0.02427	-0.00576	-0.01696	-0.00185	-0.00792	0.00422
2.96000	0.00017	0.00139	0.00073	0.00146	-3.69820	-89.82000	0.00432	-0.01327	-0.00894	-0.00051	-0.01038	0.00123
2.96200	0.00017	0.00139	0.00073	0.00146	-3.60800	-89.73000	0.00432	-0.01327	-0.00894	-0.00051	-0.01038	0.00123
2.96400	0.00017	0.00139	0.00073	0.00146	-3.60800	-89.73000	0.00432	-0.01327	-0.00894	-0.00051	-0.01038	0.00123
2.96600	0.00017	0.00139	0.00073	0.00146	-3.69820	-89.73000	0.00432	-0.01327	-0.00894	-0.00051	-0.01038	0.00123
2.96800	0.00098	0.00121	0.00069	0.00135	-3.69820	-89.73000	-0.01173	-0.00947	-0.02236	0.00062	-0.00175	0.00165
2.97000	0.00098	0.00121	0.00069	0.00135	-3.69820	-89.73000	-0.01173	-0.00947	-0.02236	0.00062	-0.00175	0.00165
2.97200	0.00098	0.00121	0.00069	0.00135	-3.78840	-89.73000	-0.01173	-0.00947	-0.02236	0.00062	-0.00175	0.00165
2.97400	0.00098	0.00121	0.00069	0.00135	-3.87860	-89.82000	-0.01173	-0.00947	-0.02236	0.00062	-0.00175	0.00165
2.97600	-0.00018	0.00148	0.00097	0.00162	-3.78840	-89.91000	-0.01481	-0.00072	-0.03963	0.00267	0.00545	-0.00154
2.97800	-0.00018	0.00148	0.00097	0.00162	0.00000	0.00000	-0.01481	-0.00072	-0.03963	0.00267	0.00545	-0.00154
2.98000	-0.00018	0.00148	0.00097	0.00162	-3.87860	-89.82000	-0.01481	-0.00072	-0.03963	0.00267	0.00545	-0.00154
2.98200	-0.00018	0.00148	0.00097	0.00162	-3.87860	-89.82000	-0.01481	-0.00072	-0.03963	0.00267	0.00545	-0.00154
2.98400	-0.00002	0.00076	0.00115	0.00214	-3.87860	-89.91000	-0.01481	-0.00072	-0.03963	0.00267	0.00545	-0.00154
2.98600	0.00056	0.00322	0.00061	0.00162	-3.78840	-89.91000	-0.04341	-0.02685	-0.03239	-0.00267	0.00504	-0.00288
2.98800	0.00056	0.00322	0.00061	0.00162	-3.87860	-89.82000	-0.04341	-0.02685	-0.03239	-0.00267	0.00504	-0.00288
2.99000	0.00056	0.00322	0.00061	0.00162	-3.78840	-89.82000	-0.04341	-0.02685	-0.03239	-0.00267	0.00504	-0.00288
2.99200	0.00056	0.00322	0.00061	0.00162	0.00000	0.00000	-0.04341	-0.02685	-0.03239	-0.00267	0.00504	-0.00288
2.99400	0.00213	0.00118	0.00057	0.00242	-3.87860	-89.82000	-0.02942	-0.03169	-0.03161	-0.00679	0.00637	0.00113
2.99600	0.00213	0.00118	0.00057	0.00242	-3.96880	-89.91000	-0.02942	-0.03169	-0.03161	-0.00679	0.00637	0.00113
2.99800	0.00213	0.00118	0.00057	0.00242	-3.96880	-90.00000	-0.02942	-0.03169	-0.03161	-0.00679	0.00637	0.00113
3.00000	0.00213	0.00118	0.00057	0.00242	-3.87860	-90.00000	-0.02942	-0.03169	-0.03161	-0.00679	0.00637	0.00113
3.00200	0.00023	0.00115	0.00065	0.00250	-3.87860	-89.91000	-0.02623	-0.04383	-0.03794	-0.00319	0.00154	-0.00278
3.00400	0.00023	0.00115	0.00065	0.00250	-3.78840	-89.82000	-0.02623	-0.04383	-0.03794	-0.00319	0.00154	-0.00278
3.00600	0.00023	0.00115	0.00065	0.00250	-3.78840	-89.73000	-0.02623	-0.04383	-0.03794	-0.00319	0.00154	-0.00278
3.00800	0.00023	0.00115	0.00065	0.00250	-3.78840	-89.73000	-0.02623	-0.04383	-0.03794	-0.00319	0.00154	-0.00278
3.01000	-0.00062	0.00115	0.00082	0.00224	-3.87860	-89.73000	0.00864	-0.02778	-0.04750	-0.00206	0.00195	0.00401
3.01200	-0.00062	0.00115	0.00082	0.00224	-3.87860	-89.73000	0.00864	-0.02778	-0.04750	-0.00206	0.00195	0.00401
3.01400	-0.00062	0.00115	0.00082	0.00224	-3.87860	-89.73000	0.00864	-0.02778	-0.04750	-0.00206	0.00195	0.00401
3.01600	-0.00062	0.00115	0.00082	0.00224	-3.96880	-89.73000	0.00864	-0.02778	-0.04750	-0.00206	0.00195	0.00401
3.01800	-0.00016	0.00182	0.00054	0.00141	-3.87860	-89.91000	0.04299	-0.05586	-0.04148	-0.00545	-0.01306	0.00566
3.02000	-0.00016	0.00182	0.00054	0.00141	-3.78840	-89.73000	0.04299	-0.05586	-0.04148	-0.00545	-0.01306	0.00566
3.02200	-0.00016	0.00182	0.00054	0.00141	-3.78840	-89.73000	0.04299	-0.05586	-0.04148	-0.00545	-0.01306	0.00566
3.02400	-0.00016	0.00182	0.00054	0.00141	-3.78840	-89.73000	0.04299	-0.05586	-0.04148	-0.00545	-0.01306	0.00566
3.02600	0.00157	0.00085	0.00110	0.00284	-3.69820	-89.73000	0.03909	-0.07274	-0.02868	-0.00679	-0.02087	0.00525
3.02800	0.00157	0.00085	0.00110	0.00284	-3.69820	-89.64000	0.03909	-0.07274	-0.02868	-0.00679	-0.02087	0.00525
3.03000	0.00157	0.00085	0.00110	0.00284	-3.69820	-89.64000	0.03909	-0.07274	-0.02868	-0.00679	-0.02087	0.00525
3.03200	0.00157	0.00085	0.00110	0.00284	-3.60800	-89.64000	0.03909	-0.07274	-0.02868	-0.00679	-0.02087	0.00525
3.03400	0.00020	0.00185	0.00101	0.00330	-3.69820	-89.64000	0.07118	-0.05144	-0.02853	-0.00730	-0.01583	0.00360
3.03600	0.00020	0.00185	0.00101	0.00330	-3.78840	-89.64000	0.07118	-0.05144	-0.02853	-0.00730	-0.01583	0.00360
3.03800	0.00020	0.00185	0.00101	0.00330	-3.78840	-89.73000	0.07118	-0.05144	-0.02853	-0.00730	-0.01583	0.00360
3.04000	0.00020	0.00185	0.00101	0.00330	-3.87860	-89.91000	0.07118	-0.05144	-0.02853	-0.00730	-0.01583	0.00360
3.04200	0.00039	0.00065	0.00081	0.00304	-3.87860	-89.91000	0.05266	-0.04918	-0.02097	-0.01018	-0.01748	0.00051
3.04400	0.00039	0.00065	0.00081	0.00304	-3.87860	-89.91000	0.05266	-0.04918	-0.02097	-0.01018	-0.01748	0.00051
3.04600	0.00039	0.00065	0.00081	0.00304	-3.78840	-89.91000	0.05266	-0.04918	-0.02097	-0.01018	-0.01748	0.00051
3.04800	0.00039	0.00065	0.00081	0.00304	-3.87860	-90.00000	0.05266	-0.04918	-0.02097	-0.01018	-0.01748	0.00051
3.05000	-0.00046	0.00138	0.00099	0.00201	-3.78840	-89.91000	0.04793	-0.02253	-0.02545	-0.00761	-0.00884	0.00226
3.05200	-0.00046	0.00138	0.00099	0.00201	-3.87860	-89.73000	0.04793	-0.02253	-0.02545	-0.00761	-0.00884	0.00226
3.05400	-0.00046	0.00138	0.00099	0.00201	-3.87860	-89.73000	0.04793	-0.02253	-0.02545	-0.00761	-0.00884	0.00226
3.05600	-0.00046	0.00138	0.00099	0.00201	-3.87860	-89.82000	0.04793	-0.02253	-0.02545	-0.00761	-0.00884	0.00226
3.05800	0.00171	0.00138	0.00085	0.00235	-3.78840	-89.73000	0.04793	-0.02253	-0.02545	-0.00895	-0.01573	0.00576
3.06000	0.00041	0.00074	0.00062	0.00232	-3.78840	-89.73000	0.04762	-0.02397	-0.02344	-0.00895	-0.01573	0.00576
3.06200	0.00041	0.00074	0.00062	0.00232	-3.78840	-89.82000	0.04762	-0.02397	-0.02344	-0.00895	-0.01573	0.00576
3.06400	0.00041	0.00074	0.00062	0.00232	-3.69820	-89.82000	0.04762	-0.02397	-0.02344	-0.00895	-0.01573	0.00576
3.06600	0.00041	0.00074	0.00062	0.00232	-3.78840	-89.82000	0.04762	-0.02397	-0.02344	-0.00895	-0.01573	0.00576
3.06800	0.00017	0.00208	0.00070	0.00205	-3.78840	-89.82000	0.01800	-0.03663	-0.01866	-0.01028	-0.00915	0.00545
3.07000	0.00017	0.00208	0.00070	0.00205	-3.60800	-89.91000	0.01800	-0.03663	-0.01866	-0.01028	-0.00915	0.00545
3.07200	0.00017	0.00208	0.00070	0.00205	0.00000	0.00000	0.01800	-0.03663	-0.01866	-0.01028	-0.00915	0.00545
3.07400	0.00017	0.00208	0.00070	0.00205	-3.69820	-89.91000	0.01800	-0.03663	-0.01866	-0.01028	-0.00915	0.00545
3.07600	0.00016	0.00046	0.00105	0.00324	-3.78840	-89.82000	0.02736	-0.03992	-0.00910	-0.01337	-0.00370	0.00679
3.07800	0.00016	0.00046	0.00105	0.00324	-3.87860	-89.82000	0.02736	-0.03992	-0.00910	-0.01337	-0.00370	0.00679
3.08000	0.00016	0.00046	0.00105	0.00324	-3.87860	-89.91000	0.02736	-0.03992	-0.00910	-0.01337	-0.00370	0.00679
3.08200	0.00016	0.00046	0.00105	0.00324	-3.96880	-90.00000	0.02736	-0.03992	-0.00910	-0.01337	-0.00370	0.00679
3.08400	0.00029	0.00197	0.00060	0.00310	-3.87860	-89.91000	0.01193	-0.07706	-0.00324	-0.01368	-0.00658	0.00278
3.08600	0.00029	0.00197	0.00060	0.00310	0.00000	0.00000	0.01193	-0.07706	-0.00324	-0.01368	-0.00658	0.00278
3.08800	0.00029	0.00197	0.00060	0.00310	-3.78840	-89.82000	0.01193	-0.07706	-0.00324	-0.01368	-0.00658	0.00278
3.09000	0.00029	0.00197	0.00060	0.00310	-3.69820	-89.82000	0.01193	-0.07706	-0.00324	-0.01368	-0.00658	0.00278
3.09200	0.00139	0.00098	0.00075	0.00276	-3.69820	-89.73000	0.05091	-0.07171	-0.00956	-0.01059	-0.00740	-0.00195
3.09400	0.00139	0.00098	0.00075	0.00276	-3.60800	-89.73000	0.05091	-0.07171	-0.00956	-0.01059	-0.00740	-0.00195
3.09600	0.00139	0.00098	0.00075	0.00276	-3.51780	-89.73000	0.05091	-0.07171	-0.00956	-0.01059	-0.00740	-0.00195
3.09800	0.00139	0.00098	0.00075	0.00276	-3.69820	-89.82000	0.05091	-0.07171	-0.00956	-0.01059	-0.00740	-0.00195
3.10000	0.00016	0.00219	0.00102	0.00220	-3.69820	-89.82000	0.05091	-0.07171	-0.00956	-0.01059	-0.00740	-0.00195
3.10200	0.00052	0.00163	0.00059	0.00126	-3.78840	-89.82000	0.05472	-0.06842	-0.02714	-0.01553	-0.01059	0.00247
3.10400	0.00052	0.00163	0.00059	0.00126	-3.78840	-89.82000	0.05472	-0.06842	-0.02714	-0.01553	-0.01059	0.00247
3.10600	0.00052	0.00163	0.00059	0.00126	-3.69820	-89.64000	0.05472	-0.06842	-0.02714	-0.01553	-0.01059	0.00247
3.10800	0.00052	0.00163	0.00059	0.00126	-3.78840	-89.73000	0.05472	-0.06842	-0.02714	-0.01553	-0.01059	0.00247
3.11000	0.00067	0.00096	0.00098	0.00112	-3.69820	-89.64000	0.05482	-0.06142	-0.02221	-0.01542	-0.01460	0.00247
3.11200	0.00067	0.00096	0.00098	0.00112	-3.69820	-89.64000	0.05482	-0.06142	-0.02221	-0.01542	-0.01460	0.00247
3.11400	0.00067	0.00096	0.00098	0.00112	-3.78840	-89.73000	0.05482	-0.06142	-0.02221	-0.01542	-0.01460	0.00247
3.11600	0.00067	0.00096	0.00098	0.00112	-3.87860	-89.82000	0.05482	-0.06142	-0.02221	-0.01542	-0.01460	0.00247
3.11800	0.00146	0.00101	0.00107	0.00203	-3.87860	-89.73000	0.05781	-0.05360	-0.02205	-0.01121	-0.01357	0.00000
3.12000	0.00146	0.00101	0.00107	0.00203	-3.87860	-89.73000	0.05781	-0.05360	-0.02205	-0.01121	-0.01357	0.00000
3.12200	0.00146	0.00101	0.00107	0.00203	-3.78840	-89.73000	0.05781	-0.05360	-0.02205	-0.01121	-0.01357	0.00000
3.12400	0.00146	0.00101	0.00107	0.00203	-3.69820	-89.82000	0.05781	-0.05360	-0.02205	-0.01121	-0.01357	0.00000
3.12600	0.00087	0.00116	0.00072	0.00324	-3.69820	-89.73000	0.02767	-0.07922	-0.01959	-0.01316	-0.00463	-0.00597
