90 Deg Fixed Reg 6 13-Apr-2018
Time(s) LoadCell(N)
0.000000 -0.199254
0.020000 -0.159596
0.040000 -0.176204
0.060000 -0.211997
0.080000 -0.191552
0.100000 -0.213313
0.120000 -0.175476
0.140000 -0.159596
0.160000 -0.231924
0.180000 -0.249106
0.200000 -0.200668
0.220000 -0.180966
0.240000 -0.225314
0.260000 -0.210597
0.280000 -0.227681
0.300000 -0.189914
0.320000 -0.206438
0.340000 -0.222205
0.360000 -0.189746
0.380000 -0.191762
0.400000 -0.203455
0.420000 -0.189326
0.440000 -0.181498
0.460000 -0.199660
0.480000 -0.165912
0.500000 -0.179719
0.520000 -0.190054
0.540000 -0.166066
0.560000 -0.192490
0.580000 -0.178613
0.600000 -0.165646
0.620000 -0.189746
0.640000 -0.176428
0.660000 -0.165940
0.680000 -0.185937
0.700000 -0.199520
0.720000 -0.169609
0.740000 -0.194619
0.760000 -0.173698
0.780000 -0.181904
0.800000 -0.206396
0.820000 -0.179649
0.840000 -0.191846
0.860000 -0.197630
0.880000 -0.197377
0.900000 -0.197868
0.920000 -0.203609
0.940000 -0.171513
0.960000 -0.197713
0.980000 -0.195137
1.000000 -0.193373
1.020000 -0.180895
1.040000 -0.187645
1.060000 -0.211535
1.080000 -0.185349
1.100000 -0.211591
1.120000 -0.186343
1.140000 -0.190726
1.160000 -0.212879
1.180000 -0.180643
1.200000 -0.218733
1.220000 -0.217276
1.240000 -0.229081
1.260000 -0.201480
1.280000 -0.202657
1.300000 -0.201705
1.320000 -0.246347
1.340000 -0.274480
1.360000 -0.170911
1.380000 -0.239598
1.400000 -0.191888
1.420000 -0.269649
1.440000 -0.248112
1.460000 -0.182590
1.480000 -0.251108
1.500000 -0.222205
1.520000 -0.262129
1.540000 -0.207376
1.560000 -0.185979
1.580000 -0.245353
1.600000 -0.202111
1.620000 -0.203721
1.640000 -0.219223
1.660000 -0.176863
1.680000 -0.177647
1.700000 -0.219643
1.720000 -0.151166
1.740000 -0.236727
1.760000 -0.154891
1.780000 -0.142106
1.800000 -0.231168
1.820000 -0.150956
1.840000 -0.187071
1.860000 -0.199170
1.880000 -0.148408
1.900000 -0.219909
1.920000 -0.218579
1.940000 -0.094761
1.960000 -0.269985
1.980000 -0.166024
2.000000 -0.197826
2.020000 -0.257746
2.040000 -0.051826
2.060000 -0.292530
2.080000 -0.173320
2.100000 -0.155185
2.120000 -0.243154
2.140000 -0.112195
2.160000 -0.228381
2.180000 -0.148716
2.200000 -0.191888
2.220000 -0.211689
2.240000 -0.143997
2.260000 -0.167760
2.280000 -0.197910
2.300000 -0.189690
2.320000 -0.162355
2.340000 -0.193457
2.360000 -0.174468
2.380000 -0.251864
2.400000 -0.126198
2.420000 -0.205331
2.440000 -0.239920
2.460000 -0.132724
2.480000 -0.258040
2.500000 -0.180279
2.520000 -0.251094
2.540000 -0.214882
2.560000 -0.148590
2.580000 -0.265602
2.600000 -0.203987
2.620000 -0.188723
2.640000 -0.260995
2.660000 -0.246403
2.680000 -0.194087
2.700000 -0.196061
2.720000 -0.177353
2.740000 -0.256206
2.760000 -0.213145
2.780000 -0.174006
2.800000 -0.201396
2.820000 -0.152021
2.840000 -0.191468
2.860000 -0.149948
2.880000 -0.224460
2.900000 -0.128103
2.920000 -0.063631
2.940000 -0.228297
2.960000 -0.149220
2.980000 -0.147847
3.000000 -0.129055
3.020000 -0.094831
3.040000 -0.204225
3.060000 -0.146237
3.080000 -0.090266
3.100000 -0.130805
3.120000 -0.088389
3.140000 -0.145565
3.160000 -0.188975
3.180000 -0.070143
3.200000 -0.090308
3.220000 -0.104059
3.240000 -0.145915
3.260000 -0.123552
3.280000 -0.048956
3.300000 -0.107910
3.320000 -0.111383
3.340000 -0.078265
3.360000 -0.079749
3.380000 -0.094691
3.400000 -0.098150
3.420000 -0.036717
3.440000 -0.087493
3.460000 -0.109198
3.480000 -0.063127
3.500000 -0.040372
3.520000 -0.071613
3.540000 -0.118048
3.560000 -0.081934
3.580000 -0.037067
3.600000 -0.087703
3.620000 -0.131352
3.640000 -0.062847
3.660000 -0.085673
3.680000 -0.130511
3.700000 -0.122712
3.720000 -0.092954
3.740000 -0.101020
3.760000 -0.138605
3.780000 -0.122782
3.800000 -0.109142
3.820000 -0.099928
3.840000 -0.148562
3.860000 -0.137597
3.880000 -0.078083
3.900000 -0.150956
3.920000 -0.123006
3.940000 -0.110403
3.960000 -0.152623
3.980000 -0.112265
4.000000 -0.151138
4.020000 -0.137863
4.040000 -0.093038
4.060000 -0.186581
4.080000 -0.159918
4.100000 -0.092660
4.120000 -0.191132
4.140000 -0.143520
4.160000 -0.177073
4.180000 -0.153561
4.200000 -0.142974
4.220000 -0.221785
4.240000 -0.150984
4.260000 -0.180867
4.280000 -0.193457
4.300000 -0.192252
4.320000 -0.232470
4.340000 -0.179481
4.360000 -0.227695
4.380000 -0.269355
4.400000 -0.215316
4.420000 -0.270321
4.440000 -0.285753
4.460000 -0.269145
4.480000 -0.315076
4.500000 -0.291998
4.520000 -0.329527
4.540000 -0.363289
4.560000 -0.317526
4.580000 -0.416124
4.600000 -0.400258
4.620000 -0.391940
4.640000 -0.435463
4.660000 -0.436009
4.680000 -0.501069
4.700000 -0.453051
4.720000 -0.499136
4.740000 -0.540810
4.760000 -0.527115
4.780000 -0.550766
4.800000 -0.571393
4.820000 -0.628835
4.840000 -0.608838
4.860000 -0.585131
4.880000 -0.681418
4.900000 -0.619901
4.920000 -0.649224
4.940000 -0.677021
4.960000 -0.622296
4.980000 -0.690282
5.000000 -0.651030
5.020000 -0.674206
5.040000 -0.657962
5.060000 -0.673212
5.080000 -0.604483
5.100000 -0.708388
5.120000 -0.634717
5.140000 -0.570833
5.160000 -0.675578
5.180000 -0.603699
5.200000 -0.579949
5.220000 -0.575790
5.240000 -0.593183
5.260000 -0.566870
5.280000 -0.538023
5.300000 -0.515030
5.320000 -0.533290
5.340000 -0.494837
5.360000 -0.488073
5.380000 -0.443557
5.400000 -0.463778
5.420000 -0.391044
5.440000 -0.419527
5.460000 -0.362183
5.480000 -0.345911
5.500000 -0.298832
5.520000 -0.287671
5.540000 -0.311281
5.560000 -0.153295
5.580000 -0.195851
5.600000 -0.143520
5.620000 -0.151516
5.640000 -0.029379
5.660000 0.002815
5.680000 -0.014844
5.700000 0.025584
5.720000 0.183864
5.740000 0.159246
5.760000 0.215316
5.780000 0.239626
5.800000 0.321601
5.820000 0.409234
5.840000 0.385079
5.860000 0.428741
5.880000 0.546243
5.900000 0.579655
5.920000 0.598336
5.940000 0.666868
5.960000 0.675312
5.980000 0.788501
6.000000 0.781136
6.020000 0.841238
6.040000 0.826605
6.060000 0.935901
6.080000 0.975278
6.100000 0.944807
6.120000 0.979703
6.140000 1.056120
6.160000 1.060013
6.180000 1.099684
6.200000 1.061483
6.220000 1.074478
6.240000 1.207174
6.260000 1.098886
6.280000 1.119611
6.300000 1.135771
6.320000 1.171340
6.340000 1.116180
6.360000 1.142297
6.380000 1.066580
6.400000 1.119527
6.420000 1.065726
6.440000 0.999294
6.460000 0.980614
6.480000 0.963642
6.500000 0.893541
6.520000 0.858939
6.540000 0.770647
6.560000 0.696485
6.580000 0.676180
6.600000 0.539018
6.620000 0.458666
6.640000 0.373316
6.660000 0.308116
6.680000 0.195011
6.700000 0.066306
6.720000 -0.049012
6.740000 -0.111985
6.760000 -0.280067
6.780000 -0.375640
6.800000 -0.576435
6.820000 -0.636341
6.840000 -0.759445
6.860000 -0.978331
6.880000 -1.041010
6.900000 -1.224300
6.920000 -1.319075
6.940000 -1.469135
6.960000 -1.668095
6.980000 -1.769437
7.000000 -1.863078
7.020000 -2.063200
7.040000 -2.181416
7.060000 -2.314602
7.080000 -2.418017
7.100000 -2.499881
7.120000 -2.704680
7.140000 -2.765441
7.160000 -2.859809
7.180000 -2.962678
7.200000 -3.079620
7.220000 -3.160714
7.240000 -3.228252
7.260000 -3.250293
7.280000 -3.354744
7.300000 -3.379754
7.320000 -3.425587
7.340000 -3.409554
7.360000 -3.428710
7.380000 -3.405143
7.400000 -3.381757
7.420000 -3.376744
7.440000 -3.247507
7.460000 -3.232145
7.480000 -3.150603
7.500000 -3.045242
7.520000 -2.903080
7.540000 -2.791893
7.560000 -2.655332
7.580000 -2.557869
7.600000 -2.292771
7.620000 -2.170172
7.640000 -1.989038
7.660000 -1.823686
7.680000 -1.558897
7.700000 -1.339730
7.720000 -1.139790
7.740000 -0.931462
7.760000 -0.629367
7.780000 -0.405033
7.800000 -0.156250
7.820000 0.079091
7.840000 0.369129
7.860000 0.683476
7.880000 0.875659
7.900000 1.204766
7.920000 1.461405
7.940000 1.758473
7.960000 2.019453
7.980000 2.290097
8.000000 2.561832
8.020000 2.870998
8.040000 3.102894
8.060000 3.351384
8.080000 3.630919
8.100000 3.869914
8.120000 4.118376
8.140000 4.352596
8.160000 4.563193
8.180000 4.794949
8.200000 5.029855
8.220000 5.130665
8.240000 5.305973
8.260000 5.477823
8.280000 5.564266
8.300000 5.663703
8.320000 5.717546
8.340000 5.759627
8.360000 5.840804
8.380000 5.789748
8.400000 5.731732
8.420000 5.761503
8.440000 5.635697
8.460000 5.526765
8.480000 5.378301
8.500000 5.208412
8.520000 5.020221
8.540000 4.793674
8.560000 4.519152
8.580000 4.317630
8.600000 3.993970
8.620000 3.741966
8.640000 3.408755
8.660000 3.087896
8.680000 2.700619
8.700000 2.357901
8.720000 1.966325
8.740000 1.535245
8.760000 1.067547
8.780000 0.677273
8.800000 0.231896
8.820000 -0.268641
8.840000 -0.719605
8.860000 -1.197008
8.880000 -1.613216
8.900000 -2.175073
8.920000 -2.704918
8.940000 -3.176510
8.960000 -3.680757
8.980000 -4.268520
9.000000 -4.745419
9.020000 -5.329709
9.040000 -5.817825
9.060000 -6.370537
9.080000 -6.886673
9.100000 -7.342819
9.120000 -7.722114
9.140000 -8.193902
9.160000 -8.425895
9.180000 -8.732359
9.200000 -8.921251
9.220000 -8.899125
9.240000 -8.906701
9.260000 -8.869942
9.280000 -8.795738
9.300000 -8.676206
9.320000 -8.557373
9.340000 -8.409918
9.360000 -8.291869
9.380000 -7.985994
9.400000 -7.783883
9.420000 -7.516699
9.440000 -7.191485
9.460000 -6.794237
9.480000 -6.352137
9.500000 -6.028547
9.520000 -5.529131
9.540000 -5.034756
9.560000 -4.591130
9.580000 -4.074209
9.600000 -3.580465
9.620000 -3.021086
9.640000 -2.404980
9.660000 -1.927647
9.680000 -1.310281
9.700000 -0.734406
9.720000 -0.223634
9.740000 0.385527
9.760000 0.887533
9.780000 1.403109
9.800000 2.000087
9.820000 2.549887
9.840000 3.040915
9.860000 3.584946
9.880000 4.067516
9.900000 4.606757
9.920000 5.034742
9.940000 5.409318
9.960000 5.857986
9.980000 6.294835
10.000000 6.614630
10.020000 6.972164
10.040000 7.364230
10.060000 7.712508
10.080000 8.024909
10.100000 8.204348
10.120000 8.481461
10.140000 8.716591
10.160000 8.902948
10.180000 8.982935
10.200000 9.156689
10.220000 9.229115
10.240000 9.307827
10.260000 9.275676
10.280000 9.204245
10.300000 9.119762
10.320000 8.950784
10.340000 8.683571
10.360000 8.422353
10.380000 8.132777
10.400000 7.844364
10.420000 7.582683
10.440000 7.214058
10.460000 6.914428
10.480000 6.568797
10.500000 6.255920
10.520000 5.810319
10.540000 5.372405
10.560000 4.984400
10.580000 4.546445
10.600000 4.126148
10.620000 3.609340
10.640000 3.163879
10.660000 2.687526
10.680000 2.090857
10.700000 1.382566
10.720000 0.688251
10.740000 -0.057890
10.760000 -0.815024
10.780000 -1.644429
10.800000 -2.406535
10.820000 -3.086230
10.840000 -3.695712
10.860000 -4.420821
10.880000 -4.954195
10.900000 -5.543765
10.920000 -6.105510
10.940000 -6.622248
10.960000 -7.215318
10.980000 -7.687918
11.000000 -8.149105
11.020000 -8.525361
11.040000 -8.982403
11.060000 -9.239967
11.080000 -9.528745
11.100000 -9.718532
11.120000 -9.831525
11.140000 -9.976306
11.160000 -10.090900
11.180000 -10.256120
11.200000 -10.371900
11.220000 -10.280880
11.240000 -10.185780
11.260000 -10.116420
11.280000 -9.913501
11.300000 -9.648445
11.320000 -9.333286
11.340000 -8.967882
11.360000 -8.623315
11.380000 -8.318084
11.400000 -7.918413
11.420000 -7.542577
11.440000 -7.001123
11.460000 -6.548128
11.480000 -6.026153
11.500000 -5.338545
11.520000 -4.638783
11.540000 -4.076800
11.560000 -3.491781
11.580000 -2.710422
11.600000 -2.116427
11.620000 -1.539992
11.640000 -0.912207
11.660000 -0.215288
11.680000 0.447842
11.700000 1.094349
11.720000 1.727245
11.740000 2.471244
11.760000 3.080657
11.780000 3.607645
11.800000 4.244868
11.820000 4.763007
11.840000 5.233380
11.860000 5.755776
11.880000 6.255850
11.900000 6.721854
11.920000 7.171726
11.940000 7.581759
11.960000 8.080082
11.980000 8.345096
12.000000 8.597465
12.020000 8.949187
12.040000 9.156255
12.060000 9.333692
12.080000 9.517864
12.100000 9.737661
12.120000 9.884640
12.140000 10.008350
12.160000 10.002940
12.180000 10.031190
12.200000 9.932966
12.220000 9.738543
12.240000 9.513817
12.260000 9.309830
12.280000 8.964885
12.300000 8.600195
12.320000 8.361284
12.340000 7.969428
12.360000 7.584419
12.380000 7.176823
12.400000 6.787082
12.420000 6.304147
12.440000 5.867004
12.460000 5.415340
12.480000 5.002787
12.500000 4.539331
12.520000 4.085258
12.540000 3.662146
12.560000 3.215663
12.580000 2.600103
12.600000 2.057052
12.620000 1.506944
12.640000 0.826353
12.660000 0.079777
12.680000 -0.618991
12.700000 -1.205788
12.720000 -1.909373
12.740000 -2.638262
12.760000 -3.252702
12.780000 -3.721058
12.800000 -4.390882
12.820000 -4.878087
12.840000 -5.395987
12.860000 -5.761503
12.880000 -6.191014
12.900000 -6.653868
12.920000 -6.974096
12.940000 -7.237962
12.960000 -7.605102
12.980000 -7.804412
13.000000 -8.011130
13.020000 -8.056375
13.040000 -8.361956
13.060000 -8.410828
13.080000 -8.570732
13.100000 -8.676276
13.120000 -8.865041
13.140000 -8.788527
13.160000 -8.849959
13.180000 -8.798021
13.200000 -8.807473
13.220000 -8.572805
13.240000 -8.342954
13.260000 -8.234091
13.280000 -8.009701
13.300000 -7.555656
13.320000 -7.418269
13.340000 -7.217349
13.360000 -7.017885
13.380000 -6.514884
13.400000 -6.235153
13.420000 -5.854597
13.440000 -5.423392
13.460000 -4.794262
13.480000 -4.342304
13.500000 -3.933966
13.520000 -3.387358
13.540000 -2.911972
13.560000 -2.480024
13.580000 -2.016247
13.600000 -1.504746
13.620000 -0.998160
13.640000 -0.462601
13.660000 0.065438
13.680000 0.648846
13.700000 1.104684
13.720000 1.625973
13.740000 2.124955
13.760000 2.590749
13.780000 2.917391
13.800000 3.442349
13.820000 3.890401
13.840000 4.305195
13.860000 4.642774
13.880000 5.152609
13.900000 5.565932
13.920000 5.883794
13.940000 6.178229
13.960000 6.534811
13.980000 6.896560
14.000000 7.126789
14.020000 7.336013
14.040000 7.697314
14.060000 7.945230
14.080000 8.135886
14.100000 8.321542
14.120000 8.483491
14.140000 8.653688
14.160000 8.808944
14.180000 8.804196
14.200000 8.802992
14.220000 8.912470
14.240000 8.879072
14.260000 8.798819
14.280000 8.600279
14.300000 8.463046
14.320000 8.239399
14.340000 8.015905
14.360000 7.547968
14.380000 7.333717
14.400000 7.086600
14.420000 6.747956
14.440000 6.337321
14.460000 6.055210
14.480000 5.752163
14.500000 5.428419
14.520000 4.914789
14.540000 4.454905
14.560000 4.127856
14.580000 3.694536
14.600000 3.156037
14.620000 2.610536
14.640000 2.205110
14.660000 1.664832
14.680000 0.990542
14.700000 0.181694
14.720000 -0.453261
14.740000 -1.157826
14.760000 -2.020378
14.780000 -2.818598
14.800000 -3.455975
14.820000 -4.058414
14.840000 -4.731429
14.860000 -5.297375
14.880000 -5.869917
14.900000 -6.285467
14.920000 -6.829134
14.940000 -7.377547
14.960000 -7.817561
14.980000 -8.191913
15.000000 -8.621551
15.020000 -8.911308
15.040000 -9.132435
15.060000 -9.240345
15.080000 -9.234310
15.100000 -9.379091
15.120000 -9.705607
15.140000 -9.788171
15.160000 -9.726990
15.180000 -9.751398
15.200000 -9.753779
15.220000 -9.660768
15.240000 -9.296597
15.260000 -9.056201
15.280000 -8.812150
15.300000 -8.410226
15.320000 -7.868828
15.340000 -7.663734
15.360000 -7.422176
15.380000 -7.049407
15.400000 -6.535469
15.420000 -6.158498
15.440000 -5.640304
15.460000 -4.990366
15.480000 -4.304859
15.500000 -3.750017
15.520000 -3.113004
15.540000 -2.609485
15.560000 -2.025041
15.580000 -1.696648
15.600000 -1.036039
15.620000 -0.547938
15.640000 -0.091680
15.660000 0.549366
15.680000 1.193689
15.700000 1.703650
15.720000 2.209451
15.740000 2.630014
15.760000 3.223001
15.780000 3.512212
15.800000 3.836516
15.820000 4.278869
15.840000 4.716796
15.860000 5.044433
15.880000 5.434706
15.900000 5.818497
15.920000 6.221864
15.940000 6.431788
15.960000 6.652369
15.980000 6.971926
16.000000 7.060889
16.020000 7.336462
16.040000 7.545910
16.060000 7.794820
16.080000 7.968392
16.100000 8.133225
16.120000 8.361886
16.140000 8.443722
16.160000 8.409862
16.180000 8.517463
16.200000 8.520782
16.220000 8.476378
16.240000 8.395060
16.260000 8.326430
16.280000 8.325071
16.300000 8.055941
16.320000 7.794904
16.340000 7.627326
16.360000 7.362130
16.380000 6.947518
16.400000 6.666555
16.420000 6.414564
16.440000 6.188074
16.460000 5.821843
16.480000 5.524300
16.500000 5.287279
16.520000 4.850766
16.540000 4.444668
16.560000 3.972503
16.580000 3.592914
16.600000 3.052286
16.620000 2.574743
16.640000 2.111274
16.660000 1.591819
16.680000 0.897644
16.700000 0.250310
16.720000 -0.435673
16.740000 -1.247672
16.760000 -2.033373
16.780000 -2.796318
16.800000 -3.454532
16.820000 -4.136972
16.840000 -4.754675
16.860000 -5.243392
16.880000 -5.685787
16.900000 -6.299806
16.920000 -6.748334
16.940000 -7.214044
16.960000 -7.666241
16.980000 -8.139975
17.000000 -8.503222
17.020000 -8.776834
17.040000 -8.904979
17.060000 -9.087569
17.080000 -9.101544
17.100000 -9.122479
17.120000 -9.377704
17.140000 -9.527260
17.160000 -9.551486
17.180000 -9.479915
17.200000 -9.494114
17.220000 -9.374021
17.240000 -9.110282
17.260000 -8.741013
17.280000 -8.493056
17.300000 -8.076245
17.320000 -7.673439
17.340000 -7.355408
17.360000 -7.151127
17.380000 -6.871774
17.400000 -6.395197
17.420000 -6.012947
17.440000 -5.554561
17.460000 -4.946871
17.480000 -4.298767
17.500000 -3.768656
17.520000 -3.232999
17.540000 -2.747741
17.560000 -2.249781
17.580000 -1.849411
17.600000 -1.435919
17.620000 -0.872788
17.640000 -0.368415
17.660000 0.134460
17.680000 0.774218
17.700000 1.316274
17.720000 1.772840
17.740000 2.256152
17.760000 2.693505
17.780000 3.082183
17.800000 3.453062
17.820000 3.860070
17.840000 4.352876
17.860000 4.809778
17.880000 5.175518
17.900000 5.678225
17.920000 6.067309
17.940000 6.433959
17.960000 6.614602
17.980000 7.018039
18.000000 7.296734
18.020000 7.546344
18.040000 7.826565
18.060000 8.193300
18.080000 8.418264
18.100000 8.688151
18.120000 8.821631
18.140000 9.044144
18.160000 9.109904
18.180000 9.082219
18.200000 9.153230
18.220000 9.129985
18.240000 9.037282
18.260000 9.029777
18.280000 8.819712
18.300000 8.634364
18.320000 8.348177
18.340000 7.966109
18.360000 7.686042
18.380000 7.224253
18.400000 6.890720
18.420000 6.555256
18.440000 6.241930
18.460000 5.827025
18.480000 5.549310
18.500000 5.211801
18.520000 4.672475
18.540000 4.170735
18.560000 3.775224
18.580000 3.272139
18.600000 2.681953
18.620000 2.157583
18.640000 1.557706
18.660000 1.099446
18.680000 0.337103
18.700000 -0.458022
18.720000 -1.063024
18.740000 -1.842521
18.760000 -2.636022
18.780000 -3.346132
18.800000 -3.996169
18.820000 -4.544050
18.840000 -5.021299
18.860000 -5.547364
18.880000 -5.981006
18.900000 -6.440932
18.920000 -6.851847
18.940000 -7.264876
18.960000 -7.710534
18.980000 -8.141669
19.000000 -8.334958
19.020000 -8.407481
19.040000 -8.571797
19.060000 -8.717866
19.080000 -8.717670
19.100000 -8.814629
19.120000 -9.013911
19.140000 -9.136034
19.160000 -9.197817
19.180000 -9.060794
19.200000 -9.096657
19.220000 -9.026500
19.240000 -8.692043
19.260000 -8.425741
19.280000 -8.178470
19.300000 -7.901890
19.320000 -7.603940
19.340000 -7.465615
19.360000 -7.258701
19.380000 -7.046382
19.400000 -6.745996
19.420000 -6.342937
19.440000 -5.874062
19.460000 -5.384322
19.480000 -4.855751
19.500000 -4.434096
19.520000 -3.863809
19.540000 -3.518024
19.560000 -3.098959
19.580000 -2.662278
19.600000 -2.099441
19.620000 -1.619209
19.640000 -1.006324
19.660000 -0.422762
19.680000 0.264944
19.700000 0.847904
19.720000 1.395561
19.740000 1.901139
19.760000 2.506911
19.780000 2.942065
19.800000 3.504272
19.820000 4.045390
19.840000 4.602430
19.860000 5.140132
19.880000 5.739000
19.900000 6.099544
19.920000 6.577717
19.940000 6.968145
19.960000 7.235511
19.980000 7.577025
20.000000 7.847935
20.020000 8.176762
20.040000 8.480985
20.060000 8.682129
20.080000 8.864775
20.100000 9.086980
20.120000 9.130307
20.140000 9.192888
20.160000 9.134340
20.180000 9.175972
20.200000 9.086686
20.220000 9.061270
20.240000 8.937845
20.260000 8.843182
20.280000 8.660662
20.300000 8.444170
20.320000 8.041069
20.340000 7.785578
20.360000 7.393343
20.380000 7.105098
20.400000 6.770095
20.420000 6.437824
20.440000 6.187037
20.460000 5.944765
20.480000 5.527787
20.500000 5.250030
20.520000 4.724722
20.540000 4.353254
20.560000 3.891956
20.580000 3.389711
20.600000 2.877790
20.620000 2.467141
20.640000 1.985859
20.660000 1.377707
20.680000 0.720879
20.700000 -0.010405
20.720000 -0.679163
20.740000 -1.582716
20.760000 -2.464228
20.780000 -3.186928
20.800000 -3.822247
20.820000 -4.554497
20.840000 -5.158616
20.860000 -5.608180
20.880000 -6.116418
20.900000 -6.576233
20.920000 -7.098012
20.940000 -7.524849
20.960000 -7.835079
20.980000 -8.259437
21.000000 -8.513431
21.020000 -8.577636
21.040000 -8.606021
21.060000 -8.647625
21.080000 -8.718930
21.100000 -8.794870
21.120000 -8.904082
21.140000 -8.847117
21.160000 -8.922189
21.180000 -8.927748
21.200000 -8.841053
21.220000 -8.633915
21.240000 -8.448791
21.260000 -8.182363
21.280000 -7.948843
21.300000 -7.582487
21.320000 -7.357047
21.340000 -7.289704
21.360000 -7.116231
21.380000 -6.851973
21.400000 -6.604996
21.420000 -6.251621
21.440000 -5.835287
21.460000 -5.345351
21.480000 -4.783564
21.500000 -4.379987
21.520000 -3.924457
21.540000 -3.448833
21.560000 -3.066527
21.580000 -2.611040
21.600000 -2.099021
21.620000 -1.602447
21.640000 -0.942203
21.660000 -0.340744
21.680000 0.262703
21.700000 0.874412
21.720000 1.507826
21.740000 2.001459
21.760000 2.544734
21.780000 3.050479
21.800000 3.566951
21.820000 4.118138
21.840000 4.649384
21.860000 5.093220
21.880000 5.646829
21.900000 6.099292
21.920000 6.448396
21.940000 6.780458
21.960000 7.084037
21.980000 7.362116
22.000000 7.647700
22.020000 7.889090
22.040000 8.110680
22.060000 8.403924
22.080000 8.559334
22.100000 8.702490
22.120000 8.751964
22.140000 8.869466
22.160000 8.855827
22.180000 8.862730
22.200000 8.808663
22.220000 8.824067
22.240000 8.758111
22.260000 8.651560
22.280000 8.482679
22.300000 8.286562
22.320000 8.000641
22.340000 7.685187
22.360000 7.395192
22.380000 7.047740
22.400000 6.785555
22.420000 6.450133
22.440000 6.201881
22.460000 5.905794
22.480000 5.564154
22.500000 5.133200
22.520000 4.792722
22.540000 4.285534
22.560000 3.801942
22.580000 3.322523
22.600000 2.837068
22.620000 2.303050
22.640000 1.819219
22.660000 1.165346
22.680000 0.523082
22.700000 -0.250884
22.720000 -1.011141
22.740000 -1.865837
22.760000 -2.605368
22.780000 -3.442013
22.800000 -4.040559
22.820000 -4.653655
22.840000 -5.236013
22.860000 -5.711385
22.880000 -6.159955
22.900000 -6.598680
22.920000 -7.069179
22.940000 -7.486676
22.960000 -7.873393
22.980000 -8.138981
23.000000 -8.443512
23.020000 -8.515559
23.040000 -8.523233
23.060000 -8.629098
23.080000 -8.694340
23.100000 -8.800766
23.120000 -8.876734
23.140000 -8.950490
23.160000 -9.032731
23.180000 -9.005509
23.200000 -8.890247
23.220000 -8.810876
23.240000 -8.580213
23.260000 -8.296910
23.280000 -8.086958
23.300000 -7.837516
23.320000 -7.580722
23.340000 -7.376077
23.360000 -7.249277
23.380000 -7.010981
23.400000 -6.684927
23.420000 -6.271422
23.440000 -5.884789
23.460000 -5.365866
23.480000 -4.853707
23.500000 -4.336815
23.520000 -3.936920
23.540000 -3.432029
23.560000 -2.971864
23.580000 -2.483875
23.600000 -2.009035
23.620000 -1.373786
23.640000 -0.758142
23.660000 -0.164035
23.680000 0.489292
23.700000 1.083342
23.720000 1.658503
23.740000 2.174345
23.760000 2.710450
23.780000 3.233405
23.800000 3.768782
23.820000 4.283518
23.840000 4.863327
23.860000 5.301506
23.880000 5.803975
23.900000 6.238192
23.920000 6.614280
23.940000 6.899150
23.960000 7.250845
23.980000 7.506364
24.000000 7.863968
24.020000 8.073697
24.040000 8.344074
24.060000 8.617378
24.080000 8.797811
24.100000 8.924219
24.120000 8.987052
24.140000 9.104317
24.160000 9.133023
24.180000 9.118012
24.200000 9.142126
24.220000 9.098197
24.240000 9.121933
24.260000 8.998815
24.280000 8.805569
24.300000 8.579736
24.320000 8.304962
24.340000 7.962468
24.360000 7.590567
24.380000 7.260941
24.400000 6.943555
24.420000 6.640788
24.440000 6.309441
24.460000 5.961247
24.480000 5.639044
24.500000 5.199002
24.520000 4.756873
24.540000 4.257597
24.560000 3.811394
24.580000 3.282417
24.600000 2.872553
24.620000 2.297994
24.640000 1.825563
24.660000 1.216795
24.680000 0.595339
24.700000 -0.184774
24.720000 -0.913426
24.740000 -1.759803
24.760000 -2.468471
24.780000 -3.326962
24.800000 -3.950154
24.820000 -4.556835
24.840000 -5.074302
24.860000 -5.672260
24.880000 -6.112497
24.900000 -6.634025
24.920000 -6.995886
24.940000 -7.590847
24.960000 -7.969624
24.980000 -8.320912
25.000000 -8.584176
25.020000 -8.831447
25.040000 -8.786482
25.060000 -8.839093
25.080000 -8.857479
25.100000 -9.081295
25.120000 -9.222519
25.140000 -9.211274
25.160000 -9.260272
25.180000 -9.273701
25.200000 -9.240821
25.220000 -9.087639
25.240000 -8.915481
25.260000 -8.613583
25.280000 -8.411780
25.300000 -8.142607
25.320000 -7.892563
25.340000 -7.736258
25.360000 -7.563890
25.380000 -7.397432
25.400000 -7.036958
25.420000 -6.642693
25.440000 -6.242967
25.460000 -5.747024
25.480000 -5.201340
25.500000 -4.696925
25.520000 -4.204749
25.540000 -3.883876
25.560000 -3.356789
25.580000 -2.851057
25.600000 -2.425243
25.620000 -1.789154
25.640000 -1.234929
25.660000 -0.529467
25.680000 0.130721
25.700000 0.724954
25.720000 1.316190
25.740000 1.907847
25.760000 2.402978
25.780000 2.955943
25.800000 3.411318
25.820000 3.966481
25.840000 4.597193
25.860000 5.098234
25.880000 5.620223
25.900000 6.065152
25.920000 6.573530
25.940000 6.904010
25.960000 7.166797
25.980000 7.447648
26.000000 7.835051
26.020000 8.101157
26.040000 8.319414
26.060000 8.617321
26.080000 8.910244
26.100000 9.067502
26.120000 9.120140
26.140000 9.251030
26.160000 9.287004
26.180000 9.344558
26.200000 9.245274
26.220000 9.252892
26.240000 9.297773
26.260000 9.205561
26.280000 8.979393
26.300000 8.842230
26.320000 8.560286
26.340000 8.233769
26.360000 7.922558
26.380000 7.548459
26.400000 7.274245
26.420000 6.950109
26.440000 6.652705
26.460000 6.313628
26.480000 6.023604
26.500000 5.595955
26.520000 5.143212
26.540000 4.722327
26.560000 4.174586
26.580000 3.663393
26.600000 3.192459
26.620000 2.659323
26.640000 2.071336
26.660000 1.562454
26.680000 0.785449
26.700000 0.063673
26.720000 -0.740708
26.740000 -1.535427
26.760000 -2.356374
26.780000 -3.097839
26.800000 -3.809826
26.820000 -4.317154
26.840000 -4.854869
26.860000 -5.434678
26.880000 -5.810529
26.900000 -6.287525
26.920000 -6.704070
26.940000 -7.242569
26.960000 -7.654226
26.980000 -7.958967
27.000000 -8.284966
27.020000 -8.563423
27.040000 -8.534800
27.060000 -8.513907
27.080000 -8.486908
27.100000 -8.609536
27.120000 -8.910790
27.140000 -8.881089
27.160000 -8.883722
27.180000 -9.004136
27.200000 -8.920298
27.220000 -8.906617
27.240000 -8.516847
27.260000 -8.385748
27.280000 -8.237984
27.300000 -7.721890
27.320000 -7.784905
27.340000 -7.509193
27.360000 -7.440899
27.380000 -7.292211
27.400000 -6.850377
27.420000 -6.724402
27.440000 -6.240838
27.460000 -5.588841
27.480000 -5.259188
27.500000 -4.744817
27.520000 -4.189373
27.540000 -3.933700
27.560000 -3.424901
27.580000 -3.084606
27.600000 -2.585245
27.620000 -1.995550
27.640000 -1.639192
27.660000 -0.730024
27.680000 -0.174678
27.700000 0.382558
27.720000 1.062926
27.740000 1.383617
27.760000 2.195308
27.780000 2.369328
27.800000 2.877006
27.820000 3.607589
27.840000 3.888581
27.860000 4.649048
27.880000 5.060663
27.900000 5.584500
27.920000 6.098718
27.940000 6.261661
27.960000 6.720958
27.980000 6.946258
28.000000 7.192507
28.020000 7.524177
28.040000 7.901960
28.060000 7.998345
28.080000 8.478394
28.100000 8.551688
28.120000 8.762200
28.140000 8.937424
28.160000 8.652526
28.180000 9.059436
28.200000 8.801830
28.220000 8.755549
28.240000 8.873807
28.260000 8.622629
28.280000 8.753056
28.300000 8.303870
28.320000 8.180122
28.340000 7.997476
28.360000 7.569072
28.380000 7.332849
28.400000 7.016023
28.420000 6.784393
28.440000 6.617445
28.460000 6.264294
28.480000 5.989800
28.500000 5.783404
28.520000 5.194731
28.540000 4.922729
28.560000 4.364429
28.580000 3.840199
28.600000 3.406711
28.620000 2.796472
28.640000 2.273909
28.660000 1.581834
28.680000 0.819533
28.700000 0.217304
28.720000 -0.629591
28.740000 -1.513918
28.760000 -2.219211
28.780000 -2.888712
28.800000 -3.446200
28.820000 -4.097693
28.840000 -4.568332
28.860000 -4.906766
28.880000 -5.335255
28.900000 -5.870603
28.920000 -6.280454
28.940000 -6.667899
28.960000 -7.046830
28.980000 -7.371890
29.000000 -7.714608
29.020000 -7.790269
29.040000 -7.871852
29.060000 -7.802186
29.080000 -7.935568
29.100000 -8.063866
29.120000 -8.298619
29.140000 -8.344984
29.160000 -8.403224
29.180000 -8.597843
29.200000 -8.504748
29.220000 -8.316459
29.240000 -8.093246
29.260000 -7.988822
29.280000 -7.674181
29.300000 -7.416197
29.320000 -7.304212
29.340000 -7.270002
29.360000 -7.213974
29.380000 -6.892051
29.400000 -6.672128
29.420000 -6.440932
29.440000 -5.906088
29.460000 -5.379603
29.480000 -5.005265
29.500000 -4.497153
29.520000 -4.073999
29.540000 -3.742568
29.560000 -3.365597
29.580000 -2.964793
29.600000 -2.460461
29.620000 -1.992455
29.640000 -1.473980
29.660000 -0.751715
29.680000 -0.140496
29.700000 0.340730
29.720000 0.827501
29.740000 1.455230
29.760000 1.871592
29.780000 2.193557
29.800000 2.767989
29.820000 3.321949
29.840000 3.773487
29.860000 4.300952
29.880000 4.821499
29.900000 5.289351
29.920000 5.679163
29.940000 5.916226
29.960000 6.269111
29.980000 6.565884
30.000000 6.765096
30.020000 7.145470
30.040000 7.448110
30.060000 7.666563
30.080000 7.972466
30.100000 8.197795
30.120000 8.297751
30.140000 8.348625
30.160000 8.423865
30.180000 8.545918
30.200000 8.469544
30.220000 8.377500
30.240000 8.567848
30.260000 8.510266
30.280000 8.181663
30.300000 8.054204
30.320000 7.929154
30.340000 7.617971
30.360000 7.279132
30.380000 6.968103
30.400000 6.826697
30.420000 6.680180
30.440000 6.347698
30.460000 6.107162
30.480000 5.916394
30.500000 5.580313
30.520000 5.109828
30.540000 4.674758
30.560000 4.205351
30.580000 3.786370
30.600000 3.318476
30.620000 2.711262
30.640000 2.154782
30.660000 1.545860
30.680000 0.806524
30.700000 -0.005405
30.720000 -0.816564
30.740000 -1.580784
30.760000 -2.311858
30.780000 -2.993850
30.800000 -3.562610
30.820000 -4.102272
30.840000 -4.463937
30.860000 -4.815099
30.880000 -5.345351
30.900000 -5.764836
30.920000 -6.057758
30.940000 -6.455286
30.960000 -6.888116
30.980000 -7.108431
31.000000 -7.126131
31.020000 -7.126901
31.040000 -7.321828
31.060000 -7.388610
31.080000 -7.355772
31.100000 -7.605368
31.120000 -7.823513
31.140000 -7.944096
31.160000 -8.039753
31.180000 -8.099533
31.200000 -8.001537
31.220000 -7.803054
31.240000 -7.657601
31.260000 -7.450071
31.280000 -7.243185
31.300000 -6.988562
31.320000 -7.008951
31.340000 -7.105392
31.360000 -6.928432
31.380000 -6.730214
31.400000 -6.496750
31.420000 -6.162307
31.440000 -5.734392
31.460000 -5.202923
31.480000 -4.812929
31.500000 -4.460282
31.520000 -4.057195
31.540000 -3.787532
31.560000 -3.436062
31.580000 -3.020022
31.600000 -2.589110
31.620000 -2.031846
31.640000 -1.497156
31.660000 -0.921520
31.680000 -0.327777
31.700000 0.142974
31.720000 0.651885
31.740000 1.143319
31.760000 1.574973
31.780000 2.088630
31.800000 2.587122
31.820000 3.143140
31.840000 3.679595
31.860000 4.119454
31.880000 4.658626
31.900000 5.063267
31.920000 5.364998
31.940000 5.741296
31.960000 6.080710
31.980000 6.413934
32.000000 6.748432
32.020000 7.067793
32.040000 7.485331
32.060000 7.732701
32.080000 7.882537
32.100000 8.138434
32.120000 8.270136
32.140000 8.324903
32.160000 8.359323
32.180000 8.438653
32.200000 8.570634
32.220000 8.638649
32.240000 8.534338
32.260000 8.476756
32.280000 8.376688
32.300000 8.100289
32.320000 7.849643
32.340000 7.537060
32.360000 7.266991
32.380000 7.030516
32.400000 6.800917
32.420000 6.625679
32.440000 6.405714
32.460000 6.088846
32.480000 5.800754
32.500000 5.458918
32.520000 4.941536
32.540000 4.547761
32.560000 4.102300
32.580000 3.679987
32.600000 3.245448
32.620000 2.718810
32.640000 2.208485
32.660000 1.537640
32.680000 0.778993
32.700000 0.015558
32.720000 -0.762833
32.740000 -1.564106
32.760000 -2.353742
32.780000 -2.934559
32.800000 -3.436930
32.820000 -3.956483
32.840000 -4.413707
32.860000 -4.809232
32.880000 -5.202195
32.900000 -5.671755
32.920000 -6.161117
32.940000 -6.506258
32.960000 -6.775963
32.980000 -7.054322
33.000000 -7.144195
33.020000 -7.123554
33.040000 -7.140358
33.060000 -7.318817
33.080000 -7.471706
33.100000 -7.511392
33.120000 -7.729550
33.140000 -7.977620
33.160000 -8.093568
33.180000 -8.065743
33.200000 -7.914619
33.220000 -7.874303
33.240000 -7.650823
33.260000 -7.458487
33.280000 -7.299675
33.300000 -7.110223
33.320000 -7.035879
33.340000 -7.042713
33.360000 -7.024467
33.380000 -6.757268
33.400000 -6.399104
33.420000 -6.111503
33.440000 -5.797856
33.460000 -5.231924
33.480000 -4.741862
33.500000 -4.501340
33.520000 -4.148763
33.540000 -3.711354
33.560000 -3.365261
33.580000 -3.012502
33.600000 -2.524415
33.620000 -1.954128
33.640000 -1.435485
33.660000 -0.941152
33.680000 -0.402219
33.700000 0.183500
33.720000 0.561465
33.740000 1.047284
33.760000 1.632596
33.780000 2.080886
33.800000 2.566915
33.820000 3.073403
33.840000 3.642892
33.860000 4.022355
33.880000 4.467844
33.900000 4.970173
33.920000 5.256542
33.940000 5.506068
33.960000 5.870085
33.980000 6.343175
34.000000 6.682574
34.020000 6.897120
34.040000 7.242877
34.060000 7.603660
34.080000 7.789961
34.100000 7.891373
34.120000 8.061794
34.140000 8.212568
34.160000 8.318812
34.180000 8.372655
34.200000 8.510266
34.220000 8.534324
34.240000 8.432757
34.260000 8.472121
34.280000 8.277362
34.300000 8.037134
34.320000 7.782553
34.340000 7.536696
34.360000 7.402698
34.380000 7.103446
34.400000 6.943079
34.420000 6.804264
34.440000 6.544011
34.460000 6.264812
34.480000 5.918635
34.500000 5.621931
34.520000 5.203847
34.540000 4.712007
34.560000 4.351308
34.580000 3.985358
34.600000 3.469376
34.620000 2.945888
34.640000 2.346572
34.660000 1.688386
34.680000 0.936601
34.700000 0.050230
34.720000 -0.665524
34.740000 -1.439588
34.760000 -2.150539
34.780000 -2.687792
34.800000 -3.296028
34.820000 -3.693892
34.840000 -4.214509
34.860000 -4.628785
34.880000 -5.031536
34.900000 -5.621021
34.920000 -5.989394
34.940000 -6.344799
34.960000 -6.675405
34.980000 -6.944017
35.000000 -7.146296
35.020000 -7.141955
35.040000 -7.177551
35.060000 -7.361500
35.080000 -7.511084
35.100000 -7.692063
35.120000 -7.933859
35.140000 -8.051543
35.160000 -8.205609
35.180000 -8.157633
35.200000 -8.115329
35.220000 -8.034613
35.240000 -7.797452
35.260000 -7.731034
35.280000 -7.470656
35.300000 -7.353392
35.320000 -7.338212
35.340000 -7.288472
35.360000 -7.279090
35.380000 -6.877011
35.400000 -6.640214
35.420000 -6.434477
35.440000 -5.941026
35.460000 -5.453247
35.480000 -5.019619
35.500000 -4.728671
35.520000 -4.383768
35.540000 -3.911252
35.560000 -3.539421
35.580000 -3.229106
35.600000 -2.646594
35.620000 -2.165551
35.640000 -1.607642
35.660000 -0.989646
35.680000 -0.498366
35.700000 0.090798
35.720000 0.500508
35.740000 1.112105
35.760000 1.624811
35.780000 1.944143
35.800000 2.578104
35.820000 3.114405
35.840000 3.666963
35.860000 4.063805
35.880000 4.501354
35.900000 5.103443
35.920000 5.425520
35.940000 5.678463
35.960000 6.089238
35.980000 6.486989
36.000000 6.760041
36.020000 7.135233
36.040000 7.378276
36.060000 7.716303
36.080000 7.922937
36.100000 8.077814
36.120000 8.345908
36.140000 8.311404
36.160000 8.525641
36.180000 8.608191
36.200000 8.614297
36.220000 8.679202
36.240000 8.520740
36.260000 8.629182
36.280000 8.425979
36.300000 8.059497
36.320000 7.961432
36.340000 7.711598
36.360000 7.501351
36.380000 7.200335
36.400000 6.963762
36.420000 6.888158
36.440000 6.669859
36.460000 6.267361
36.480000 6.046093
36.500000 5.680844
36.520000 5.289912
36.540000 4.912871
36.560000 4.341114
36.580000 4.044186
36.600000 3.496613
36.620000 2.908625
36.640000 2.370112
36.660000 1.545706
36.680000 0.872060
36.700000 0.090238
36.720000 -0.734841
36.740000 -1.452275
36.760000 -2.229574
36.780000 -2.754434
36.800000 -3.277712
36.820000 -3.822079
36.840000 -4.256967
36.860000 -4.686479
36.880000 -5.089944
36.900000 -5.534550
36.920000 -6.036893
36.940000 -6.351689
36.960000 -6.606242
36.980000 -6.927829
37.000000 -7.027995
37.020000 -7.138090
37.040000 -7.094427
37.060000 -7.175647
37.080000 -7.537494
37.100000 -7.696964
37.120000 -7.835948
37.140000 -8.003596
37.160000 -8.136768
37.180000 -8.228406
37.200000 -8.064357
37.220000 -7.955802
37.240000 -7.797158
37.260000 -7.630826
37.280000 -7.468583
37.300000 -7.296902
37.320000 -7.375195
37.340000 -7.361136
37.360000 -7.237458
37.380000 -7.055974
37.400000 -6.754622
37.420000 -6.421230
37.440000 -6.024108
37.460000 -5.502301
37.480000 -5.137191
37.500000 -4.753611
37.520000 -4.404423
37.540000 -4.109778
37.560000 -3.693402
37.580000 -3.343752
37.600000 -2.805322
37.620000 -2.258589
37.640000 -1.782895
37.660000 -1.099082
37.680000 -0.552545
37.700000 -0.027349
37.720000 0.470737
37.740000 0.883262
37.760000 1.480898
37.780000 1.945964
37.800000 2.412304
37.820000 3.025945
37.840000 3.522603
37.860000 4.087765
37.880000 4.634358
37.900000 4.926230
37.920000 5.416796
37.940000 5.710293
37.960000 6.068597
37.980000 6.495994
38.000000 6.691130
38.020000 7.157401
38.040000 7.513520
38.060000 7.764671
38.080000 8.035608
38.100000 8.134765
38.120000 8.384305
38.140000 8.508921
38.160000 8.532461
38.180000 8.638439
38.200000 8.694522
38.220000 8.827512
38.240000 8.783387
38.260000 8.658337
38.280000 8.571685
38.300000 8.343360
38.320000 8.092181
38.340000 7.828344
38.360000 7.468079
38.380000 7.314042
38.400000 7.108361
38.420000 6.861229
38.440000 6.667857
38.460000 6.331874
38.480000 6.099404
38.500000 5.729463
38.520000 5.246431
38.540000 4.830951
38.560000 4.403387
38.580000 4.001084
38.600000 3.521048
38.620000 2.946784
38.640000 2.410960
38.660000 1.717359
38.680000 0.987699
38.700000 0.241306
38.720000 -0.678253
38.740000 -1.386613
38.760000 -2.119732
38.780000 -2.740487
38.800000 -3.222427
38.820000 -3.902710
38.840000 -4.184164
38.860000 -4.606323
38.880000 -5.133410
38.900000 -5.541622
38.920000 -6.119961
38.940000 -6.340668
38.960000 -6.646796
38.980000 -7.049267
39.000000 -7.186570
39.020000 -7.144363
39.040000 -7.156630
39.060000 -7.311270
39.080000 -7.609807
39.100000 -7.744142
39.120000 -7.822672
39.140000 -8.138882
39.160000 -8.294222
39.180000 -8.378214
39.200000 -8.221698
39.220000 -8.072240
39.240000 -8.009169
39.260000 -7.751521
39.280000 -7.707061
39.300000 -7.446192
39.320000 -7.301523
39.340000 -7.440899
39.360000 -7.338450
39.380000 -7.215683
39.400000 -6.743517
39.420000 -6.421034
39.440000 -6.168427
39.460000 -5.638918
39.480000 -5.092380
39.500000 -4.709346
39.520000 -4.367314
39.540000 -3.977334
39.560000 -3.626942
39.580000 -3.164817
39.600000 -2.647855
39.620000 -2.074851
39.640000 -1.617837
39.660000 -1.070641
39.680000 -0.380864
39.700000 0.169049
39.720000 0.642320
39.740000 0.974704
39.760000 1.595754
39.780000 2.220332
39.800000 2.559703
39.820000 3.167295
39.840000 3.642388
39.860000 4.112004
39.880000 4.633518
39.900000 5.060466
39.920000 5.395105
39.940000 5.640598
39.960000 6.016154
39.980000 6.481682
40.000000 6.792487
40.020000 6.967417
40.040000 7.294732
40.060000 7.733947
40.080000 7.943381
40.100000 7.985322
40.120000 8.117555
40.140000 8.288438
40.160000 8.421568
40.180000 8.483687
40.200000 8.501948
40.220000 8.519592
40.240000 8.539995
40.260000 8.491739
40.280000 8.432883
40.300000 8.070882
40.320000 7.810868
40.340000 7.749827
40.360000 7.522426
40.380000 7.208387
40.400000 6.964952
40.420000 6.863610
40.440000 6.758613
40.460000 6.424758
40.480000 6.071622
40.500000 5.765970
40.520000 5.425912
40.540000 4.968772
40.560000 4.551710
40.580000 4.159490
40.600000 3.600139
40.620000 3.083065
40.640000 2.585189
40.660000 1.843669
40.680000 1.006632
40.700000 0.201873
40.720000 -0.543331
40.740000 -1.234397
40.760000 -2.030334
40.780000 -2.740179
40.800000 -3.210720
40.820000 -3.669470
40.840000 -4.119972
40.860000 -4.538953
40.880000 -5.092576
40.900000 -5.576224
40.920000 -5.950590
40.940000 -6.284683
40.960000 -6.578151
40.980000 -7.037098
41.000000 -7.227543
41.020000 -7.116217
41.040000 -7.175031
41.060000 -7.333031
41.080000 -7.569044
41.100000 -7.819704
41.120000 -7.918357
41.140000 -8.057075
41.160000 -8.272111
41.180000 -8.347253
41.200000 -8.311782
41.220000 -8.097377
41.240000 -7.868828
41.260000 -7.795450
41.280000 -7.695186
41.300000 -7.494490
41.320000 -7.343449
41.340000 -7.330734
41.360000 -7.325553
41.380000 -7.120334
41.400000 -6.903758
41.420000 -6.483783
41.440000 -6.018759
41.460000 -5.630852
41.480000 -5.242342
41.500000 -4.907774
41.520000 -4.471611
41.540000 -3.950980
41.560000 -3.723299
41.580000 -3.448357
41.600000 -2.840877
41.620000 -2.301103
41.640000 -1.663334
41.660000 -1.121194
41.680000 -0.669291
41.700000 -0.075968
41.720000 0.474700
41.740000 1.042032
41.760000 1.574090
41.780000 1.913546
41.800000 2.408425
41.820000 3.073557
41.840000 3.714253
41.860000 4.146243
41.880000 4.552578
41.900000 4.994903
41.920000 5.458694
41.940000 5.845957
41.960000 6.158849
41.980000 6.501749
42.000000 6.784715
42.020000 7.105770
42.040000 7.544286
42.060000 7.869668
42.080000 8.006999
42.100000 8.161498
42.120000 8.342631
42.140000 8.525123
42.160000 8.652862
42.180000 8.622965
42.200000 8.672691
42.220000 8.718356
42.240000 8.673657
42.260000 8.697351
42.280000 8.497565
42.300000 8.224653
42.320000 7.989859
42.340000 7.765861
42.360000 7.583005
42.380000 7.291763
42.400000 7.096962
42.420000 6.888788
42.440000 6.635173
42.460000 6.424506
42.480000 6.124540
42.500000 5.808316
42.520000 5.345421
42.540000 4.833808
42.560000 4.484522
42.580000 4.113447
42.600000 3.570256
42.620000 2.941673
42.640000 2.291665
42.660000 1.606844
42.680000 0.961065
42.700000 0.101650
42.720000 -0.759165
42.740000 -1.440834
42.760000 -2.241785
42.780000 -2.758005
42.800000 -3.256693
42.820000 -3.838547
42.840000 -4.191151
42.860000 -4.699180
42.880000 -5.125918
42.900000 -5.506712
42.920000 -5.988890
42.940000 -6.328023
42.960000 -6.628535
42.980000 -6.938920
43.000000 -7.053664
43.020000 -7.036187
43.040000 -7.102829
43.060000 -7.243115
43.080000 -7.488188
43.100000 -7.736902
43.120000 -7.862078
43.140000 -8.124627
43.160000 -8.259521
43.180000 -8.188258
43.200000 -8.151654
43.220000 -8.064903
43.240000 -7.881711
43.260000 -7.701333
43.280000 -7.420048
43.300000 -7.346264
43.320000 -7.333885
43.340000 -7.391691
43.360000 -7.335957
43.380000 -7.035095
43.400000 -6.762982
43.420000 -6.423568
43.440000 -6.031712
43.460000 -5.515548
43.480000 -5.072103
43.500000 -4.770709
43.520000 -4.432850
43.540000 -4.038739
43.560000 -3.680407
43.580000 -3.358175
43.600000 -2.800827
43.620000 -2.315079
43.640000 -1.803059
43.660000 -1.173020
43.680000 -0.642096
43.700000 -0.064345
43.720000 0.337257
43.740000 0.783138
43.760000 1.316582
43.780000 1.769759
43.800000 2.289396
43.820000 2.876964
43.840000 3.414693
43.860000 3.917456
43.880000 4.409198
43.900000 4.850962
43.920000 5.263683
43.940000 5.572808
43.960000 5.926281
43.980000 6.359671
44.000000 6.697656
44.020000 7.056506
44.040000 7.439708
44.060000 7.818205
44.080000 8.072465
44.100000 8.233797
44.120000 8.437896
44.140000 8.576782
44.160000 8.685714
44.180000 8.782855
44.200000 8.883974
44.220000 8.957673
44.240000 8.989895
44.260000 8.903256
44.280000 8.759064
44.300000 8.567890
44.320000 8.264941
44.340000 8.037400
44.360000 7.759055
44.380000 7.447368
44.400000 7.277017
44.420000 7.110713
44.440000 6.828321
44.460000 6.557790
44.480000 6.220785
44.500000 5.855970
44.520000 5.454199
44.540000 4.886685
44.560000 4.479425
44.580000 4.062279
44.600000 3.475187
44.620000 2.954038
44.640000 2.267677
44.660000 1.603918
44.680000 0.865520
44.700000 -0.028091
44.720000 -0.770255
44.740000 -1.575001
44.760000 -2.295824
44.780000 -2.866041
44.800000 -3.451816
44.820000 -3.882223
44.840000 -4.320613
44.860000 -4.765542
44.880000 -5.164441
44.900000 -5.656996
44.920000 -6.119051
44.940000 -6.442235
44.960000 -6.785107
44.980000 -7.036355
45.000000 -7.207505
45.020000 -7.284285
45.040000 -7.229952
45.060000 -7.341587
45.080000 -7.506084
45.100000 -7.777792
45.120000 -7.981527
45.140000 -8.112878
45.160000 -8.307371
45.180000 -8.275177
45.200000 -8.193216
45.220000 -8.021184
45.240000 -7.837558
45.260000 -7.733205
45.280000 -7.508073
45.300000 -7.244543
45.320000 -7.231842
45.340000 -7.320232
45.360000 -7.237472
45.380000 -6.989024
45.400000 -6.632750
45.420000 -6.314230
45.440000 -5.966778
45.460000 -5.520841
45.480000 -4.976138
45.500000 -4.563067
45.520000 -4.311454
45.540000 -3.968918
45.560000 -3.679314
45.580000 -3.206323
45.600000 -2.635854
45.620000 -2.282157
45.640000 -1.751093
45.660000 -1.129133
45.680000 -0.582540
45.700000 -0.043298
45.720000 0.336725
45.740000 0.800026
45.760000 1.340948
45.780000 1.754230
45.800000 2.276779
45.820000 2.815433
45.840000 3.339789
45.860000 3.869942
45.880000 4.297577
45.900000 4.767068
45.920000 5.207460
45.940000 5.505577
45.960000 5.839880
45.980000 6.266800
46.000000 6.673724
46.020000 7.035571
46.040000 7.370714
46.060000 7.705366
46.080000 8.048001
46.100000 8.277334
46.120000 8.393744
46.140000 8.565803
46.160000 8.738787
46.180000 8.812094
46.200000 8.849091
46.220000 8.941331
46.240000 8.984476
46.260000 8.872617
46.280000 8.705501
46.300000 8.504384
46.320000 8.300691
46.340000 8.036210
46.360000 7.711500
46.380000 7.498999
46.400000 7.347594
46.420000 7.091109
46.440000 6.810397
46.460000 6.568335
46.480000 6.257124
46.500000 5.845397
46.520000 5.405089
46.540000 4.940136
46.560000 4.483962
46.580000 3.981101
46.600000 3.437028
46.620000 2.873449
46.640000 2.189188
46.660000 1.443649
46.680000 0.756056
46.700000 -0.050916
46.720000 -0.876457
46.740000 -1.618565
46.760000 -2.248787
46.780000 -2.775089
46.800000 -3.358329
46.820000 -3.838127
46.840000 -4.194610
46.860000 -4.601814
46.880000 -5.129951
46.900000 -5.581812
46.920000 -5.948210
46.940000 -6.310463
46.960000 -6.659511
46.980000 -6.968915
47.000000 -7.074767
47.020000 -7.197912
47.040000 -7.330160
47.060000 -7.352804
47.080000 -7.482923
47.100000 -7.768507
47.120000 -8.069678
47.140000 -8.157045
47.160000 -8.185710
47.180000 -8.279560
47.200000 -8.293200
47.220000 -8.137076
47.240000 -7.896358
47.260000 -7.826439
47.280000 -7.677079
47.300000 -7.434569
47.320000 -7.399911
47.340000 -7.439498
47.360000 -7.298288
47.380000 -6.993379
47.400000 -6.741389
47.420000 -6.489818
47.440000 -6.023758
47.460000 -5.505031
47.480000 -5.164161
47.500000 -4.820841
47.520000 -4.388711
47.540000 -3.978790
47.560000 -3.680113
47.580000 -3.292654
47.600000 -2.692525
47.620000 -2.216719
47.640000 -1.786311
47.660000 -1.134735
47.680000 -0.576421
47.700000 -0.072299
47.720000 0.353907
47.740000 0.876569
47.760000 1.495756
47.780000 1.858821
47.800000 2.341307
47.820000 2.979496
47.840000 3.497677
47.860000 3.987206
47.880000 4.449626
47.900000 4.938357
47.920000 5.413701
47.940000 5.667778
47.960000 6.082404
47.980000 6.514478
48.000000 6.794433
48.020000 7.183447
48.040000 7.520480
48.060000 7.831915
48.080000 8.098483
48.100000 8.249313
48.120000 8.520810
48.140000 8.648465
48.160000 8.700011
48.180000 8.820902
48.200000 8.906659
48.220000 8.899531
48.240000 8.830537
48.260000 8.805289
48.280000 8.632991
48.300000 8.369784
48.320000 8.147369
48.340000 7.935063
48.360000 7.648863
48.380000 7.371582
48.400000 7.233327
48.420000 7.000339
48.440000 6.766189
48.460000 6.404061
48.480000 6.153037
48.500000 5.793361
48.520000 5.332398
48.540000 4.920881
48.560000 4.469790
48.580000 4.066522
48.600000 3.456507
48.620000 2.951265
48.640000 2.257497
48.660000 1.521732
48.680000 0.824392
48.700000 -0.016790
48.720000 -0.841658
48.740000 -1.496162
48.760000 -2.251377
48.780000 -2.754042
48.800000 -3.382359
48.820000 -3.858011
48.840000 -4.215881
48.860000 -4.696589
48.880000 -5.197685
48.900000 -5.589584
48.920000 -6.022960
48.940000 -6.357500
48.960000 -6.687518
48.980000 -7.006290
49.000000 -7.038890
49.020000 -7.100127
49.040000 -7.159795
49.060000 -7.312502
49.080000 -7.548066
49.100000 -7.767275
49.120000 -7.945076
49.140000 -8.142761
49.160000 -8.225227
49.180000 -8.280611
49.200000 -8.132189
49.220000 -8.093792
49.240000 -7.834841
49.260000 -7.706304
49.280000 -7.503564
49.300000 -7.365855
49.320000 -7.322500
49.340000 -7.388162
49.360000 -7.207056
49.380000 -7.021470
49.400000 -6.689408
49.420000 -6.391991
49.440000 -5.952369
49.460000 -5.470919
49.480000 -5.022489
49.500000 -4.744873
49.520000 -4.352050
49.540000 -3.957799
49.560000 -3.657945
49.580000 -3.271130
49.600000 -2.739324
49.620000 -2.258197
49.640000 -1.738014
49.660000 -1.125156
49.680000 -0.646535
49.700000 -0.083600
49.720000 0.308550
49.740000 0.820807
49.760000 1.347936
49.780000 1.777209
49.800000 2.273853
49.820000 2.923777
49.840000 3.387162
49.860000 3.939315
49.880000 4.364765
49.900000 4.905001
49.920000 5.232064
49.940000 5.626525
49.960000 5.971624
49.980000 6.418919
50.000000 6.753515
50.020000 7.143103
50.040000 7.540771
50.060000 7.866713
50.080000 8.083499
50.100000 8.328824
50.120000 8.547011
50.140000 8.614605
50.160000 8.769370
50.180000 8.858137
50.200000 8.964969
50.220000 9.000076
50.240000 8.962701
50.260000 8.915621
50.280000 8.796747
50.300000 8.443708
50.320000 8.246358
50.340000 7.986134
50.360000 7.697440
50.380000 7.412108
50.400000 7.205754
50.420000 7.048734
50.440000 6.722932
50.460000 6.477509
50.480000 6.104880
50.500000 5.768827
50.520000 5.306198
50.540000 4.846635
50.560000 4.421605
50.580000 3.988005
50.600000 3.441285
50.620000 2.924281
50.640000 2.348715
50.660000 1.557804
50.680000 0.869385
50.700000 0.065312
50.720000 -0.723414
50.740000 -1.487676
50.760000 -2.191751
50.780000 -2.778212
50.800000 -3.256091
50.820000 -3.840493
50.840000 -4.219732
50.860000 -4.628365
50.880000 -5.128593
50.900000 -5.601374
50.920000 -6.028771
50.940000 -6.402619
50.960000 -6.721658
50.980000 -7.010365
51.000000 -7.177943
51.020000 -7.158171
51.040000 -7.262832
51.060000 -7.321226
51.080000 -7.594908
51.100000 -7.787804
51.120000 -7.956909
51.140000 -8.149413
51.160000 -8.274211
51.180000 -8.326037
51.200000 -8.192179
51.220000 -8.046180
51.240000 -7.877958
51.260000 -7.761296
51.280000 -7.479170
51.300000 -7.365182
51.320000 -7.244473
51.340000 -7.316661
51.360000 -7.217349
51.380000 -6.901699
51.400000 -6.735297
51.420000 -6.304946
51.440000 -5.960869
51.460000 -5.463581
51.480000 -5.013541
51.500000 -4.645057
51.520000 -4.373041
51.540000 -3.883876
51.560000 -3.589511
51.580000 -3.217623
51.600000 -2.700647
51.620000 -2.264596
51.640000 -1.694715
51.660000 -1.175050
51.680000 -0.645051
51.700000 -0.154499
51.720000 0.335269
51.740000 0.780912
51.760000 1.309035
51.780000 1.762310
51.800000 2.265787
51.820000 2.859767
51.840000 3.376100
51.860000 3.836222
51.880000 4.352820
51.900000 4.824104
51.920000 5.206732
51.940000 5.604287
51.960000 5.941418
51.980000 6.428357
52.000000 6.763822
52.020000 7.140709
52.040000 7.508899
52.060000 7.895448
52.080000 8.096746
52.100000 8.334439
52.120000 8.566629
52.140000 8.642724
52.160000 8.823479
52.180000 8.855379
52.200000 8.962813
52.220000 8.964157
52.240000 8.974379
52.260000 8.826840
52.280000 8.692380
52.300000 8.435712
52.320000 8.159551
52.340000 7.964989
52.360000 7.649367
52.380000 7.392335
52.400000 7.198710
52.420000 6.981952
52.440000 6.692951
52.460000 6.444769
52.480000 6.089378
52.500000 5.732880
52.520000 5.288567
52.540000 4.879865
52.560000 4.378433
52.580000 4.038529
52.600000 3.382289
52.620000 2.881963
52.640000 2.268951
52.660000 1.433147
52.680000 0.847288
52.700000 -0.086247
52.720000 -0.731942
52.740000 -1.538970
52.760000 -2.191247
52.780000 -2.647126
52.800000 -3.344774
52.820000 -3.651826
52.840000 -4.199021
52.860000 -4.590093
52.880000 -5.050132
52.900000 -5.595311
52.920000 -5.953405
52.940000 -6.314454
52.960000 -6.683989
52.980000 -6.970666
53.000000 -7.022940
53.020000 -7.274945
53.040000 -7.230932
53.060000 -7.382197
53.080000 -7.620156
53.100000 -7.799119
53.120000 -8.183581
53.140000 -8.103552
53.160000 -8.374755
53.180000 -8.326164
53.200000 -8.256833
53.220000 -8.192291
53.240000 -7.819816
53.260000 -7.915179
53.280000 -7.480976
53.300000 -7.450771
53.320000 -7.389688
53.340000 -7.211776
53.360000 -7.336546
53.380000 -6.805664
53.400000 -6.701955
53.420000 -6.361883
53.440000 -5.769261
53.460000 -5.587945
53.480000 -4.985702
53.500000 -4.581789
53.520000 -4.413063
53.540000 -3.811100
53.560000 -3.609508
53.580000 -3.248487
53.600000 -2.485612
53.620000 -2.441725
53.640000 -1.622864
53.660000 -1.052437
53.680000 -0.842765
53.700000 0.136225
53.720000 0.139950
53.740000 0.896509
53.760000 1.529952
53.780000 1.515150
53.800000 2.583229
53.820000 2.791991
53.840000 3.313869
53.860000 4.171449
53.880000 4.097539
53.900000 5.011553
53.920000 5.370375
53.940000 5.353487
53.960000 6.348692
53.980000 6.209331
54.000000 6.703383
54.020000 7.466651
54.040000 7.120404
54.060000 8.009673
54.080000 8.081553
54.100000 8.045060
54.120000 8.847159
54.140000 8.328040
54.160000 8.763699
54.180000 9.064561
54.200000 8.593138
54.220000 9.152068
54.240000 8.843154
54.260000 8.656027
54.280000 8.958486
54.300000 8.171944
54.320000 8.177784
54.340000 8.146864
54.360000 7.415875
54.380000 7.644200
54.400000 7.165789
54.420000 6.850181
54.440000 7.063564
54.460000 6.272528
54.480000 6.183466
54.500000 5.932526
54.520000 5.176904
54.540000 5.183080
54.560000 4.476372
54.580000 3.874731
54.600000 3.784032
54.620000 2.752446
54.640000 2.249809
54.660000 1.714964
54.680000 0.485819
54.700000 0.232946
54.720000 -0.807812
54.740000 -1.827957
54.760000 -1.897288
54.780000 -3.020694
54.800000 -3.298661
54.820000 -3.668546
54.840000 -4.586312
54.860000 -4.387101
54.880000 -5.279913
54.900000 -5.721467
54.920000 -5.828761
54.940000 -6.572872
54.960000 -6.633129
54.980000 -6.859843
55.000000 -7.352902
55.020000 -6.941091
55.040000 -7.279370
55.060000 -7.428254
55.080000 -7.363852
55.100000 -8.086146
55.120000 -7.870494
55.140000 -8.077016
55.160000 -8.479318
55.180000 -8.048561
55.200000 -8.375413
55.220000 -7.974259
55.240000 -7.797466
55.260000 -7.878476
55.280000 -7.315218
55.300000 -7.407137
55.320000 -7.362256
55.340000 -7.222992
55.360000 -7.290096
55.380000 -6.874785
55.400000 -6.694911
55.420000 -6.406876
55.440000 -5.818609
55.460000 -5.541370
55.480000 -5.004047
55.500000 -4.655657
55.520000 -4.400558
55.540000 -3.896997
55.560000 -3.686904
55.580000 -3.254298
55.600000 -2.724901
55.620000 -2.392447
55.640000 -1.679914
55.660000 -1.198548
55.680000 -0.699454
55.700000 -0.108554
55.720000 0.261793
55.740000 0.911227
55.760000 1.252713
55.780000 1.785653
55.800000 2.347846
55.820000 2.865551
55.840000 3.445388
55.860000 3.898635
55.880000 4.445565
55.900000 4.914901
55.920000 5.298034
55.940000 5.635753
55.960000 6.058332
55.980000 6.392215
56.000000 6.825115
56.020000 7.165761
56.040000 7.509445
56.060000 7.853424
56.080000 8.098105
56.100000 8.303030
56.120000 8.461478
56.140000 8.573967
56.160000 8.720904
56.180000 8.803762
56.200000 8.851234
56.220000 8.889043
56.240000 8.926460
56.260000 8.859650
56.280000 8.647947
56.300000 8.438639
56.320000 8.172000
56.340000 7.971878
56.360000 7.678480
56.380000 7.396746
56.400000 7.223244
56.420000 7.039282
56.440000 6.804908
56.460000 6.469331
56.480000 6.153023
56.500000 5.803849
56.520000 5.407540
56.540000 4.903629
56.560000 4.474678
56.580000 4.014821
56.600000 3.589735
56.620000 2.981289
56.640000 2.356150
56.660000 1.627583
56.680000 0.914630
56.700000 0.121689
56.720000 -0.739924
56.740000 -1.511061
56.760000 -2.165453
56.780000 -2.777022
56.800000 -3.344032
56.820000 -3.849889
56.840000 -4.297549
56.860000 -4.636361
56.880000 -5.171023
56.900000 -5.657556
56.920000 -6.073022
56.940000 -6.444741
56.960000 -6.800035
56.980000 -7.053762
57.000000 -7.263644
57.020000 -7.253184
57.040000 -7.346712
57.060000 -7.397530
57.080000 -7.606432
57.100000 -7.838832
57.120000 -8.010738
57.140000 -8.166413
57.160000 -8.304332
57.180000 -8.330435
57.200000 -8.203046
57.220000 -8.089339
57.240000 -7.912532
57.260000 -7.765217
57.280000 -7.488986
57.300000 -7.348378
57.320000 -7.308399
57.340000 -7.300459
57.360000 -7.155118
57.380000 -6.933221
57.400000 -6.722848
57.420000 -6.322926
57.440000 -5.907474
57.460000 -5.463203
57.480000 -5.045861
57.500000 -4.633784
57.520000 -4.294916
57.540000 -3.924219
57.560000 -3.591415
57.580000 -3.184015
57.600000 -2.723935
57.620000 -2.224365
57.640000 -1.688442
57.660000 -1.138670
57.680000 -0.603699
57.700000 -0.110094
57.720000 0.435841
57.740000 0.845131
57.760000 1.340276
57.780000 1.849018
57.800000 2.342581
57.820000 2.886122
57.840000 3.386938
57.860000 3.929975
57.880000 4.408890
57.900000 4.859770
57.920000 5.216086
57.940000 5.628261
57.960000 5.983904
57.980000 6.352585
58.000000 6.697334
58.020000 7.093447
58.040000 7.437160
58.060000 7.736762
58.080000 8.036420
58.100000 8.201856
58.120000 8.431805
58.140000 8.568590
58.160000 8.696062
58.180000 8.750325
58.200000 8.830775
58.220000 8.896661
58.240000 8.877084
58.260000 8.783023
58.280000 8.608373
58.300000 8.435824
58.320000 8.214921
58.340000 7.943956
58.360000 7.643191
58.380000 7.482279
58.400000 7.235861
58.420000 7.028402
58.440000 6.765642
58.460000 6.522096
58.480000 6.185777
58.500000 5.800642
58.520000 5.393060
58.540000 4.979611
58.560000 4.528815
58.580000 4.039859
58.600000 3.525936
58.620000 2.942933
58.640000 2.306228
58.660000 1.542177
58.680000 0.847820
58.700000 -0.008864
58.720000 -0.750496
58.740000 -1.527375
58.760000 -2.200657
58.780000 -2.756143
58.800000 -3.355137
58.820000 -3.765477
58.840000 -4.204343
58.860000 -4.709948
58.880000 -5.129895
58.900000 -5.535559
58.920000 -6.020439
58.940000 -6.373884
58.960000 -6.717723
58.980000 -6.942113
59.000000 -7.093111
59.020000 -7.340929
59.040000 -7.321674
59.060000 -7.355506
59.080000 -7.527271
59.100000 -7.864431
59.120000 -8.097489
59.140000 -8.086860
59.160000 -8.212078
59.180000 -8.327998
59.200000 -8.245574
59.220000 -8.126377
59.240000 -7.894524
59.260000 -7.800379
59.280000 -7.676351
59.300000 -7.395738
59.320000 -7.412486
59.340000 -7.347202
59.360000 -7.206748
59.380000 -6.979208
59.400000 -6.687952
59.420000 -6.345877
59.440000 -5.931910
59.460000 -5.497035
59.480000 -5.065214
59.500000 -4.681059
59.520000 -4.292130
59.540000 -3.994670
59.560000 -3.576194
59.580000 -3.150477
59.600000 -2.682919
59.620000 -2.253254
59.640000 -1.699210
59.660000 -1.072378
59.680000 -0.614790
59.700000 -0.123104
59.720000 0.375990
59.740000 0.888990
59.760000 1.386585
59.780000 1.779240
59.800000 2.362900
59.820000 2.911132
59.840000 3.394864
59.860000 3.949089
59.880000 4.398093
59.900000 4.899652
59.920000 5.280151
59.940000 5.683056
59.960000 6.061987
59.980000 6.409929
60.000000 6.827551
60.020000 7.179204
60.040000 7.513856
60.060000 7.812002
60.080000 8.078990
60.100000 8.326906
60.120000 8.476266
60.140000 8.546576
60.160000 8.776176
60.180000 8.818060
60.200000 8.796705
60.220000 8.920270
60.240000 8.818200
60.260000 8.808299
60.280000 8.571110
60.300000 8.293592
60.320000 8.194980
60.340000 7.864627
60.360000 7.596812
60.380000 7.380194
60.400000 7.181976
60.420000 6.989738
60.440000 6.747942
60.460000 6.445413
60.480000 6.176409
60.500000 5.772174
60.520000 5.403101
60.540000 4.967638
60.560000 4.503203
60.580000 4.070863
60.600000 3.564823
60.620000 3.039655
60.640000 2.341433
60.660000 1.598064
60.680000 0.916590
60.700000 0.117642
60.720000 -0.777859
60.740000 -1.473728
60.760000 -2.179778
60.780000 -2.750499
60.800000 -3.315633
60.820000 -3.843294
60.840000 -4.204413
60.860000 -4.653851
60.880000 -5.125442
60.900000 -5.580608
60.920000 -5.991830
60.940000 -6.368563
60.960000 -6.677561
60.980000 -6.936609
61.000000 -7.121146
61.020000 -7.166195
61.040000 -7.161994
61.060000 -7.272270
61.080000 -7.596238
61.100000 -7.850217
61.120000 -7.948143
61.140000 -8.120258
61.160000 -8.316151
61.180000 -8.308995
61.200000 -8.170740
61.220000 -8.041475
61.240000 -7.894202
61.260000 -7.729690
61.280000 -7.495232
61.300000 -7.333521
61.320000 -7.357117
61.340000 -7.341447
61.360000 -7.210291
61.380000 -7.000493
61.400000 -6.662956
61.420000 -6.356044
61.440000 -5.963614
61.460000 -5.458932
61.480000 -5.017336
61.500000 -4.684980
61.520000 -4.397001
61.540000 -3.997793
61.560000 -3.641925
61.580000 -3.267742
61.600000 -2.839589
61.620000 -2.275015
61.640000 -1.746150
61.660000 -1.186701
61.680000 -0.679723
61.700000 -0.142708
61.720000 0.335913
61.740000 0.816186
61.760000 1.327183
61.780000 1.779898
61.800000 2.361388
61.820000 2.933425
61.840000 3.455261
61.860000 3.957239
61.880000 4.495137
61.900000 4.892832
61.920000 5.360335
61.940000 5.645149
61.960000 6.015454
61.980000 6.516298
62.000000 6.767925
62.020000 7.152569
62.040000 7.548459
62.060000 7.849657
62.080000 8.084087
62.100000 8.283019
62.120000 8.388058
62.140000 8.601974
62.160000 8.688291
62.180000 8.709576
62.200000 8.850155
62.220000 8.891059
62.240000 8.901212
62.260000 8.805219
62.280000 8.620318
62.300000 8.378816
62.320000 8.185206
62.340000 7.912756
62.360000 7.605928
62.380000 7.394520
62.400000 7.220206
62.420000 7.019117
62.440000 6.787908
62.460000 6.448970
62.480000 6.161397
62.500000 5.873852
62.520000 5.359830
62.540000 4.910686
62.560000 4.530089
62.580000 4.103925
62.600000 3.582551
62.620000 3.068250
62.640000 2.415889
62.660000 1.769773
62.680000 1.035381
62.700000 0.123398
62.720000 -0.597104
62.740000 -1.407884
62.760000 -2.107241
62.780000 -2.719020
62.800000 -3.279966
62.820000 -3.793932
62.840000 -4.186852
62.860000 -4.672335
62.880000 -5.152231
62.900000 -5.604553
62.920000 -6.127299
62.940000 -6.440554
62.960000 -6.809095
62.980000 -7.097298
63.000000 -7.261726
63.020000 -7.291231
63.040000 -7.331658
63.060000 -7.415357
63.080000 -7.637772
63.100000 -7.896400
63.120000 -8.061500
63.140000 -8.180542
63.160000 -8.349661
63.180000 -8.396895
63.200000 -8.216097
63.220000 -8.136642
63.240000 -7.887746
63.260000 -7.759895
63.280000 -7.568749
63.300000 -7.305514
63.320000 -7.270716
63.340000 -7.294788
63.360000 -7.117127
63.380000 -6.969769
63.400000 -6.635621
63.420000 -6.264168
63.440000 -5.956654
63.460000 -5.391758
63.480000 -4.992704
63.500000 -4.588595
63.520000 -4.250288
63.540000 -3.890275
63.560000 -3.526636
63.580000 -3.125859
63.600000 -2.681953
63.620000 -2.211356
63.640000 -1.678513
63.660000 -1.135799
63.680000 -0.602299
63.700000 -0.156320
63.720000 0.388271
63.740000 0.806818
63.760000 1.350275
63.780000 1.818897
63.800000 2.271584
63.820000 2.906931
63.840000 3.378676
63.860000 3.887643
63.880000 4.366306
63.900000 4.806081
63.920000 5.235383
63.940000 5.604847
63.960000 5.935537
63.980000 6.396178
64.000000 6.704980
64.020000 7.126201
64.040000 7.490723
64.060000 7.738358
64.080000 8.038688
64.100000 8.247801
64.120000 8.441243
64.140000 8.549615
64.160000 8.662020
64.180000 8.745438
64.200000 8.847579
64.220000 8.821995
64.240000 8.798063
64.260000 8.747063
64.280000 8.587452
64.300000 8.318154
64.320000 8.106773
64.340000 7.911160
64.360000 7.639480
64.380000 7.402249
64.400000 7.177019
64.420000 7.057445
64.440000 6.800973
64.460000 6.481444
64.480000 6.182388
64.500000 5.857342
64.520000 5.430505
64.540000 4.987649
64.560000 4.539947
64.580000 4.093604
64.600000 3.608121
64.620000 2.986890
64.640000 2.351249
64.660000 1.624573
64.680000 0.892308
64.700000 0.072327
64.720000 -0.715012
64.740000 -1.497576
64.760000 -2.133035
64.780000 -2.701053
64.800000 -3.303646
64.820000 -3.760450
64.840000 -4.207311
64.860000 -4.624486
64.880000 -5.121619
64.900000 -5.577611
64.920000 -6.037271
64.940000 -6.327799
64.960000 -6.732706
64.980000 -6.970862
65.000000 -7.179974
65.020000 -7.272914
65.040000 -7.353308
65.060000 -7.436754
65.080000 -7.585736
65.100000 -7.896232
65.120000 -8.120972
65.140000 -8.211770
65.160000 -8.299179
65.180000 -8.328572
65.200000 -8.303226
65.220000 -8.178722
65.240000 -7.933649
65.260000 -7.847206
65.280000 -7.619862
65.300000 -7.407795
65.320000 -7.379452
65.340000 -7.305990
65.360000 -7.154334
65.380000 -6.942771
65.400000 -6.625973
65.420000 -6.315560
65.440000 -5.916086
65.460000 -5.353305
65.480000 -5.061699
65.500000 -4.591158
65.520000 -4.239337
65.540000 -3.884324
65.560000 -3.504819
65.580000 -3.147033
65.600000 -2.595622
65.620000 -2.192661
65.640000 -1.676777
65.660000 -1.096716
65.680000 -0.550262
65.700000 -0.109702
65.720000 0.385149
65.740000 0.892981
65.760000 1.401247
65.780000 1.824709
65.800000 2.299451
65.820000 2.914044
65.840000 3.382093
65.860000 3.890639
65.880000 4.374175
65.900000 4.843722
65.920000 5.273570
65.940000 5.627099
65.960000 5.993539
65.980000 6.425753
66.000000 6.698902
66.020000 7.153900
66.040000 7.461134
66.060000 7.761016
66.080000 8.003036
66.100000 8.282767
66.120000 8.439255
66.140000 8.598963
66.160000 8.673839
66.180000 8.775279
66.200000 8.898047
66.220000 8.808075
66.240000 8.824417
66.260000 8.759316
66.280000 8.598669
66.300000 8.337520
66.320000 8.122821
66.340000 7.895154
66.360000 7.666787
66.380000 7.380376
66.400000 7.210753
66.420000 7.012214
66.440000 6.761021
66.460000 6.492647
66.480000 6.155054
66.500000 5.830932
66.520000 5.422566
66.540000 4.962597
66.560000 4.556513
66.580000 4.082681
66.600000 3.541283
66.620000 3.019378
66.640000 2.301691
66.660000 1.600557
66.680000 0.865184
66.700000 0.029925
66.720000 -0.698670
66.740000 -1.529840
66.760000 -2.171824
66.780000 -2.727338
66.800000 -3.273959
66.820000 -3.794534
66.840000 -4.193812
66.860000 -4.634540
66.880000 -5.068448
66.900000 -5.574222
66.920000 -5.982882
66.940000 -6.329410
66.960000 -6.619881
66.980000 -6.919455
67.000000 -7.169261
67.020000 -7.137754
67.040000 -7.187648
67.060000 -7.307027
67.080000 -7.623054
67.100000 -7.872482
67.120000 -8.013230
67.140000 -8.126714
67.160000 -8.355347
67.180000 -8.383003
67.200000 -8.155631
67.220000 -8.117933
67.240000 -7.921102
67.260000 -7.754644
67.280000 -7.509221
67.300000 -7.366611
67.320000 -7.354932
67.340000 -7.370028
67.360000 -7.208905
67.380000 -6.984109
67.400000 -6.709377
67.420000 -6.329325
67.440000 -5.957368
67.460000 -5.429791
67.480000 -4.972763
67.500000 -4.627118
67.520000 -4.312267
67.540000 -3.933111
67.560000 -3.572749
67.580000 -3.195176
67.600000 -2.782847
67.620000 -2.253380
67.640000 -1.662956
67.660000 -1.186561
67.680000 -0.638960
67.700000 -0.152034
67.720000 0.350700
67.740000 0.808330
67.760000 1.248022
67.780000 1.748978
67.800000 2.251923
67.820000 2.815181
67.840000 3.333627
67.860000 3.869494
67.880000 4.322055
67.900000 4.831049
67.920000 5.241166
67.940000 5.559224
67.960000 5.948056
67.980000 6.381138
68.000000 6.747424
68.020000 7.136031
68.040000 7.468765
68.060000 7.849643
68.080000 8.119054
68.100000 8.247955
68.120000 8.489765
68.140000 8.610684
68.160000 8.724783
68.180000 8.764651
68.200000 8.873555
68.220000 8.941541
68.240000 8.936402
68.260000 8.832259
68.280000 8.709716
68.300000 8.488547
68.320000 8.207275
68.340000 7.994480
68.360000 7.677402
68.380000 7.473120
68.400000 7.222810
68.420000 7.059643
68.440000 6.843193
68.460000 6.503709
68.480000 6.206222
68.500000 5.825848
68.520000 5.432130
68.540000 4.907634
68.560000 4.500752
68.580000 4.060990
68.600000 3.585352
68.620000 2.979020
68.640000 2.376707
68.660000 1.737636
68.680000 0.921113
68.700000 0.119953
68.720000 -0.695603
68.740000 -1.403067
68.760000 -2.157387
68.780000 -2.795016
68.800000 -3.316767
68.820000 -3.790837
68.840000 -4.213473
68.860000 -4.696071
68.880000 -5.114561
68.900000 -5.567682
68.920000 -6.041472
68.940000 -6.452793
68.960000 -6.774058
68.980000 -7.047922
69.000000 -7.254710
69.020000 -7.338296
69.040000 -7.339780
69.060000 -7.406632
69.080000 -7.614919
69.100000 -7.913680
69.120000 -8.058363
69.140000 -8.185374
69.160000 -8.344312
69.180000 -8.379824
69.200000 -8.285820
69.220000 -8.105737
69.240000 -7.953814
69.260000 -7.717815
69.280000 -7.559871
69.300000 -7.296398
69.320000 -7.279930
69.340000 -7.235539
69.360000 -7.127195
69.380000 -6.974167
69.400000 -6.649386
69.420000 -6.300829
69.440000 -5.897798
69.460000 -5.477641
69.480000 -4.976726
69.500000 -4.610034
69.520000 -4.268702
69.540000 -3.923827
69.560000 -3.553746
69.580000 -3.155897
69.600000 -2.708839
69.620000 -2.239852
69.640000 -1.683933
69.660000 -1.094377
69.680000 -0.642741
69.700000 -0.074204
69.720000 0.392836
69.740000 0.866430
69.760000 1.341775
69.780000 1.799124
69.800000 2.321352
69.820000 2.851001
69.840000 3.367754
69.860000 3.889295
69.880000 4.359528
69.900000 4.783228
69.920000 5.249456
69.940000 5.582708
69.960000 5.953447
69.980000 6.307256
70.000000 6.736851
70.020000 7.103292
70.040000 7.438378
70.060000 7.767331
70.080000 8.047034
70.100000 8.316571
70.120000 8.406907
70.140000 8.593250
70.160000 8.709548
70.180000 8.799169
70.200000 8.803566
70.220000 8.882797
70.240000 8.831363
70.260000 8.776246
70.280000 8.611944
70.300000 8.352056
70.320000 8.183637
70.340000 7.875815
70.360000 7.668705
70.380000 7.392839
70.400000 7.192815
70.420000 7.002901
70.440000 6.781270
70.460000 6.497058
70.480000 6.192863
70.500000 5.808120
70.520000 5.457784
70.540000 4.989399
70.560000 4.494478
70.580000 4.105381
70.600000 3.559880
70.620000 3.028690
70.640000 2.347650
70.660000 1.653896
70.680000 0.914504
70.700000 0.134712
70.720000 -0.700112
70.740000 -1.418961
70.760000 -2.117897
70.780000 -2.688198
70.800000 -3.261328
70.820000 -3.749275
70.840000 -4.150444
70.860000 -4.617792
70.880000 -5.055481
70.900000 -5.530181
70.920000 -5.963894
70.940000 -6.361827
70.960000 -6.673178
70.980000 -6.990887
71.000000 -7.167259
71.020000 -7.351207
71.040000 -7.372492
71.060000 -7.428730
71.080000 -7.574407
71.100000 -7.925135
71.120000 -8.131013
71.140000 -8.211350
71.160000 -8.336862
71.180000 -8.390537
71.200000 -8.333725
71.220000 -8.158081
71.240000 -8.017515
71.260000 -7.827308
71.280000 -7.641651
71.300000 -7.397166
71.320000 -7.386202
71.340000 -7.344514
71.360000 -7.156056
71.380000 -6.960051
71.400000 -6.713998
71.420000 -6.369557
71.440000 -5.881344
71.460000 -5.455417
71.480000 -5.065004
71.500000 -4.646765
71.520000 -4.226860
71.540000 -3.923883
71.560000 -3.594244
71.580000 -3.132595
71.600000 -2.664168
71.620000 -2.211412
71.640000 -1.701087
71.660000 -1.069633
71.680000 -0.566044
71.700000 -0.082466
71.720000 0.399180
71.740000 0.933338
71.760000 1.367527
71.780000 1.808997
71.800000 2.364090
71.820000 2.874947
71.840000 3.408867
71.860000 3.912779
71.880000 4.429321
71.900000 4.864111
71.920000 5.272253
71.940000 5.651843
71.960000 6.064928
71.980000 6.353677
72.000000 6.757548
72.020000 7.157569
72.040000 7.510537
72.060000 7.772190
72.080000 8.065379
72.100000 8.365849
72.120000 8.465735
72.140000 8.583657
72.160000 8.717880
72.180000 8.806605
72.200000 8.860812
72.220000 8.827778
72.240000 8.822989
72.260000 8.826336
72.280000 8.564263
72.300000 8.340195
72.320000 8.150155
72.340000 7.863366
72.360000 7.644970
72.380000 7.347034
72.400000 7.179820
72.420000 6.995718
72.440000 6.733001
72.460000 6.480156
72.480000 6.183046
72.500000 5.769905
72.520000 5.394279
72.540000 4.997913
72.560000 4.455465
72.580000 4.022229
72.600000 3.533091
72.620000 2.971500
72.640000 2.353812
72.660000 1.567089
72.680000 0.894199
72.700000 0.140272
72.720000 -0.724590
72.740000 -1.496624
72.760000 -2.125823
72.780000 -2.719020
72.800000 -3.295608
72.820000 -3.782309
72.840000 -4.188127
72.860000 -4.619038
72.880000 -5.071599
72.900000 -5.527731
72.920000 -5.946838
72.940000 -6.359825
72.960000 -6.644961
72.980000 -6.969909
73.000000 -7.150973
73.020000 -7.207435
73.040000 -7.219071
73.060000 -7.257385
73.080000 -7.644662
73.100000 -7.853494
73.120000 -7.987814
73.140000 -8.139457
73.160000 -8.339873
73.180000 -8.332115
73.200000 -8.178330
73.220000 -8.072731
73.240000 -7.919002
73.260000 -7.721610
73.280000 -7.421154
73.300000 -7.361178
73.320000 -7.317361
73.340000 -7.273026
73.360000 -7.192101
73.380000 -7.005226
73.400000 -6.701227
73.420000 -6.318851
73.440000 -5.950716
73.460000 -5.475344
73.480000 -5.028147
73.500000 -4.614683
73.520000 -4.368798
73.540000 -3.998955
73.560000 -3.600518
73.580000 -3.250223
73.600000 -2.825711
73.620000 -2.266137
73.640000 -1.706240
73.660000 -1.182444
73.680000 -0.656562
73.700000 -0.125260
73.720000 0.378903
73.740000 0.786695
73.760000 1.284333
73.780000 1.795274
73.800000 2.292337
73.820000 2.822603
73.840000 3.383381
73.860000 3.924863
73.880000 4.386709
73.900000 4.846173
73.920000 5.274942
73.940000 5.615980
73.960000 5.976385
73.980000 6.417127
74.000000 6.766217
74.020000 7.170928
74.040000 7.508843
74.060000 7.887536
74.080000 8.150127
74.100000 8.335952
74.120000 8.495842
74.140000 8.657637
74.160000 8.775448
74.180000 8.800037
74.200000 8.913213
74.220000 8.943978
74.240000 8.978874
74.260000 8.828772
74.280000 8.734712
74.300000 8.475691
74.320000 8.207667
74.340000 7.943227
74.360000 7.662628
74.380000 7.456540
74.400000 7.158339
74.420000 7.020784
74.440000 6.773330
74.460000 6.488068
74.480000 6.166844
74.500000 5.746743
74.520000 5.397570
74.540000 4.891698
74.560000 4.441182
74.580000 4.010102
74.600000 3.535906
74.620000 2.994186
74.640000 2.378822
74.660000 1.660169
74.680000 0.954049
74.700000 0.174566
74.720000 -0.679653
74.740000 -1.368591
74.760000 -2.150777
74.780000 -2.695550
74.800000 -3.221880
74.820000 -3.761234
74.840000 -4.137883
74.860000 -4.610986
74.880000 -5.049208
74.900000 -5.458638
74.920000 -6.031264
74.940000 -6.357850
74.960000 -6.678541
74.980000 -6.985327
75.000000 -7.189342
75.020000 -7.295474
75.040000 -7.283291
75.060000 -7.313538
75.080000 -7.615451
75.100000 -7.908121
75.120000 -8.028102
75.140000 -8.222217
75.160000 -8.321724
75.180000 -8.431399
75.200000 -8.274631
75.220000 -8.121182
75.240000 -7.976990
75.260000 -7.759531
75.280000 -7.600873
75.300000 -7.327303
75.320000 -7.324405
75.340000 -7.250957
75.360000 -7.179820
75.380000 -6.985425
75.400000 -6.649596
75.420000 -6.305072
75.440000 -5.945745
75.460000 -5.499486
75.480000 -4.978883
75.500000 -4.624024
75.520000 -4.296569
75.540000 -3.922357
75.560000 -3.542362
75.580000 -3.147397
75.600000 -2.707075
75.620000 -2.228944
75.640000 -1.658517
75.660000 -1.108675
75.680000 -0.638904
75.700000 -0.055173
75.720000 0.388985
75.740000 0.864974
75.760000 1.378505
75.780000 1.829722
75.800000 2.331995
75.820000 2.923189
75.840000 3.383213
75.860000 3.946163
75.880000 4.373027
75.900000 4.858790
75.920000 5.289281
75.940000 5.623892
75.960000 6.004335
75.980000 6.425697
76.000000 6.820284
76.020000 7.143929
76.040000 7.551147
76.060000 7.838776
76.080000 8.143083
76.100000 8.311684
76.120000 8.489919
76.140000 8.627516
76.160000 8.745004
76.180000 8.789227
76.200000 8.806563
76.220000 8.914767
76.240000 8.798497
76.260000 8.758069
76.280000 8.542866
76.300000 8.287878
76.320000 8.106045
76.340000 7.855384
76.360000 7.564646
76.380000 7.354162
76.400000 7.159319
76.420000 6.973676
76.440000 6.739582
76.460000 6.416819
76.480000 6.148528
76.500000 5.765214
76.520000 5.384686
76.540000 4.903433
76.560000 4.485082
76.580000 4.055501
76.600000 3.554166
76.620000 2.963252
76.640000 2.346600
76.660000 1.641040
76.680000 0.908356
76.700000 0.127823
76.720000 -0.716664
76.740000 -1.384051
76.760000 -2.105812
76.780000 -2.649871
76.800000 -3.194476
76.820000 -3.703988
76.840000 -4.090635
76.860000 -4.554427
76.880000 -5.039657
76.900000 -5.469295
76.920000 -5.934108
76.940000 -6.341480
76.960000 -6.604142
76.980000 -6.978746
77.000000 -7.114732
77.020000 -7.259695
77.040000 -7.372506
77.060000 -7.357873
77.080000 -7.598983
77.100000 -7.927544
77.120000 -8.118059
77.140000 -8.227356
77.160000 -8.350417
77.180000 -8.323279
77.200000 -8.381995
77.220000 -8.136670
77.240000 -7.980714
77.260000 -7.815979
77.280000 -7.596224
77.300000 -7.439820
77.320000 -7.316171
77.340000 -7.312530
77.360000 -7.163940
77.380000 -6.943121
77.400000 -6.662508
77.420000 -6.323024
77.440000 -5.894507
77.460000 -5.500158
77.480000 -5.006301
77.500000 -4.657324
77.520000 -4.283126
77.540000 -3.865391
77.560000 -3.589959
77.580000 -3.119572
77.600000 -2.648233
77.620000 -2.229000
77.640000 -1.693119
77.660000 -1.085317
77.680000 -0.612017
77.700000 -0.075884
77.720000 0.374926
77.740000 0.875897
77.760000 1.391753
77.780000 1.840574
77.800000 2.342077
77.820000 2.917811
77.840000 3.446452
77.860000 3.903690
77.880000 4.449906
77.900000 4.886377
77.920000 5.335381
77.940000 5.701793
77.960000 6.092136
77.980000 6.460901
78.000000 6.870458
78.020000 7.217055
78.040000 7.561790
78.060000 7.910978
78.080000 8.067871
78.100000 8.406655
78.120000 8.504300
78.140000 8.629364
78.160000 8.758125
78.180000 8.789059
78.200000 8.849987
78.220000 8.828954
78.240000 8.805275
78.260000 8.720890
78.280000 8.577706
78.300000 8.248977
78.320000 8.086342
78.340000 7.846100
78.360000 7.573287
78.380000 7.299997
78.400000 7.129422
78.420000 6.976141
78.440000 6.712276
78.460000 6.415026
78.480000 6.100679
78.500000 5.803065
78.520000 5.383328
78.540000 4.917016
78.560000 4.485516
78.580000 4.117970
78.600000 3.542404
78.620000 3.033003
78.640000 2.383975
78.660000 1.666261
78.680000 0.999322
78.700000 0.147623
78.720000 -0.638455
78.740000 -1.391136
78.760000 -2.059209
78.780000 -2.680062
78.800000 -3.189729
78.820000 -3.794940
78.840000 -4.149519
78.860000 -4.561877
78.880000 -5.091792
78.900000 -5.513783
78.920000 -5.971203
78.940000 -6.310197
78.960000 -6.666316
78.980000 -6.987204
79.000000 -7.178028
79.020000 -7.212532
79.040000 -7.234489
79.060000 -7.356612
79.080000 -7.677668
79.100000 -7.927250
79.120000 -8.041923
79.140000 -8.207359
79.160000 -8.363861
79.180000 -8.415659
79.200000 -8.226838
79.220000 -8.129682
79.240000 -7.947330
79.260000 -7.747082
79.280000 -7.481270
79.300000 -7.335593
79.320000 -7.271248
79.340000 -7.267103
79.360000 -7.174625
79.380000 -6.937366
79.400000 -6.679620
79.420000 -6.262207
79.440000 -5.947244
79.460000 -5.466508
79.480000 -4.966308
79.500000 -4.584422
79.520000 -4.339041
79.540000 -3.929625
79.560000 -3.557499
79.580000 -3.218646
79.600000 -2.739044
79.620000 -2.325665
79.640000 -1.675251
79.660000 -1.164282
79.680000 -0.677805
79.700000 -0.138087
79.720000 0.367434
79.740000 0.785827
79.760000 1.319453
79.780000 1.764774
79.800000 2.291259
79.820000 2.891429
79.840000 3.382765
79.860000 3.955895
79.880000 4.378180
79.900000 4.854155
79.920000 5.299616
79.940000 5.641606
79.960000 5.981370
79.980000 6.424002
80.000000 6.828868
80.020000 7.190939
80.040000 7.538614
80.060000 7.874919
80.080000 8.198243
80.100000 8.319092
80.120000 8.513865
80.140000 8.622587
80.160000 8.778220
80.180000 8.815007
80.200000 8.841837
80.220000 8.925312
80.240000 8.935940
80.260000 8.816435
80.280000 8.676080
80.300000 8.394976
80.320000 8.175109
80.340000 7.915683
80.360000 7.634943
80.380000 7.333199
80.400000 7.213918
80.420000 6.958091
80.440000 6.787740
80.460000 6.423302
80.480000 6.167643
80.500000 5.781038
80.520000 5.422355
80.540000 4.850892
80.560000 4.461276
80.580000 4.114343
80.600000 3.513207
80.620000 3.090417
80.640000 2.366695
80.660000 1.811559
80.680000 1.049734
80.700000 0.229613
80.720000 -0.595829
80.740000 -1.366575
80.760000 -2.003518
80.780000 -2.751311
80.800000 -3.189267
80.820000 -3.836320
80.840000 -4.108882
80.860000 -4.626278
80.880000 -5.130315
80.900000 -5.528389
80.920000 -6.110523
80.940000 -6.308460
80.960000 -6.911515
80.980000 -7.015168
81.000000 -7.355520
81.020000 -7.364720
81.040000 -7.359007
81.060000 -7.524737
81.080000 -7.574519
81.100000 -8.037862
81.120000 -8.010584
81.140000 -8.305088
81.160000 -8.339873
81.180000 -8.471855
81.200000 -8.324469
81.220000 -8.095136
81.240000 -8.063460
81.260000 -7.668453
81.280000 -7.619246
81.300000 -7.209157
81.320000 -7.287548
81.340000 -7.178616
81.360000 -7.066211
81.380000 -6.950487
81.400000 -6.522306
81.420000 -6.348916
81.440000 -5.728049
81.460000 -5.514148
81.480000 -4.859140
81.500000 -4.538673
81.520000 -4.215041
81.540000 -3.811044
81.560000 -3.565565
81.580000 -3.024181
81.600000 -2.752516
81.620000 -2.137894
81.640000 -1.729850
81.660000 -1.043181
81.680000 -0.681180
81.700000 -0.096133
81.720000 0.408226
81.740000 0.730275
81.760000 1.435191
81.780000 1.681160
81.800000 2.358741
81.820000 2.781097
81.840000 3.410058
81.860000 3.922763
81.880000 4.321873
81.900000 4.876490
81.920000 5.179929
81.940000 5.734547
81.960000 5.875406
81.980000 6.415194
82.000000 6.732706
82.020000 7.159081
82.040000 7.476859
82.060000 7.745934
82.080000 8.160266
82.100000 8.209025
82.120000 8.558129
82.140000 8.494610
82.160000 8.751446
82.180000 8.735272
82.200000 8.817416
82.220000 8.870124
82.240000 8.769118
82.260000 8.834052
82.280000 8.527854
82.300000 8.455919
82.320000 8.062046
82.340000 7.957483
82.360000 7.626359
82.380000 7.367843
82.400000 7.231184
82.420000 6.935937
82.440000 6.850517
82.460000 6.427475
82.480000 6.199052
82.500000 5.769877
82.520000 5.478845
82.540000 4.907172
82.560000 4.479369
82.580000 4.110478
82.600000 3.485018
82.620000 3.070350
82.640000 2.277381
82.660000 1.716029
82.680000 0.919419
82.700000 0.153015
82.720000 -0.651717
82.740000 -1.382986
82.760000 -2.040318
82.780000 -2.710450
82.800000 -3.157969
82.820000 -3.760716
82.840000 -4.102636
82.860000 -4.622581
82.880000 -4.988783
82.900000 -5.516332
82.920000 -5.983708
82.940000 -6.324648
82.960000 -6.690738
82.980000 -6.983437
83.000000 -7.279006
83.020000 -7.287758
83.040000 -7.426867
83.060000 -7.418507
83.080000 -7.685089
83.100000 -7.920514
83.120000 -8.145170
83.140000 -8.239833
83.160000 -8.402118
83.180000 -8.412704
83.200000 -8.345376
83.220000 -8.186914
83.240000 -8.050073
83.260000 -7.771896
83.280000 -7.653330
83.300000 -7.354890
83.320000 -7.311396
83.340000 -7.289116
83.360000 -7.130528
83.380000 -6.894739
83.400000 -6.648924
83.420000 -6.305030
83.440000 -5.839264
83.460000 -5.453303
83.480000 -4.913165
83.500000 -4.630129
83.520000 -4.241592
83.540000 -3.828058
83.560000 -3.577174
83.580000 -3.117906
83.600000 -2.704218
83.620000 -2.199621
83.640000 -1.719011
83.660000 -1.101757
83.680000 -0.618109
83.700000 -0.085210
83.720000 0.382292
83.740000 0.839894
83.760000 1.371980
83.780000 1.775207
83.800000 2.313734
83.820000 2.864949
83.840000 3.418992
83.860000 3.889617
83.880000 4.445187
83.900000 4.885620
83.920000 5.326110
83.940000 5.690492
83.960000 6.038490
83.980000 6.456238
84.000000 6.801295
84.020000 7.191527
84.040000 7.539594
84.060000 7.880576
84.080000 8.108131
84.100000 8.393590
84.120000 8.510784
84.140000 8.671094
84.160000 8.720162
84.180000 8.825860
84.200000 8.863823
84.220000 8.845114
84.240000 8.890779
84.260000 8.755619
84.280000 8.657301
84.300000 8.338290
84.320000 8.174115
84.340000 7.890729
84.360000 7.606194
84.380000 7.331252
84.400000 7.167175
84.420000 6.969041
84.440000 6.694029
84.460000 6.463898
84.480000 6.125549
84.500000 5.822404
84.520000 5.375528
84.540000 4.929101
84.560000 4.514335
84.580000 4.082485
84.600000 3.522841
84.620000 2.991203
84.640000 2.397712
84.660000 1.679158
84.680000 0.952789
84.700000 0.137513
84.720000 -0.639212
84.740000 -1.397102
84.760000 -2.089666
84.780000 -2.727058
84.800000 -3.226152
84.820000 -3.778038
84.840000 -4.171057
84.860000 -4.625970
84.880000 -5.088067
84.900000 -5.534410
84.920000 -6.008298
84.940000 -6.348916
84.960000 -6.742761
84.980000 -7.023444
85.000000 -7.226703
85.020000 -7.198416
85.040000 -7.289158
85.060000 -7.372072
85.080000 -7.680342
85.100000 -7.845792
85.120000 -8.042021
85.140000 -8.166777
85.160000 -8.377430
85.180000 -8.324161
85.200000 -8.241807
85.220000 -8.080727
85.240000 -7.900993
85.260000 -7.642141
85.280000 -7.450435
85.300000 -7.289690
85.320000 -7.184175
85.340000 -7.299549
85.360000 -7.077413
85.380000 -6.974124
85.400000 -6.627009
85.420000 -6.227367
85.440000 -5.961779
85.460000 -5.320033
85.480000 -4.978827
85.500000 -4.539625
85.520000 -4.292242
85.540000 -3.897641
85.560000 -3.548397
85.580000 -3.261804
85.600000 -2.695354
85.620000 -2.364706
85.640000 -1.643379
85.660000 -1.265932
85.680000 -0.602481
85.700000 -0.195795
85.720000 0.314894
85.740000 0.795055
85.760000 1.249562
85.780000 1.769241
85.800000 2.160103
85.820000 2.910768
85.840000 3.349885
85.860000 3.877266
85.880000 4.437065
85.900000 4.800354
85.920000 5.358976
85.940000 5.573060
85.960000 5.990556
85.980000 6.424814
86.000000 6.811671
86.020000 7.172580
86.040000 7.555460
86.060000 7.888026
86.080000 8.147425
86.100000 8.368664
86.120000 8.509244
86.140000 8.614857
86.160000 8.739963
86.180000 8.769412
86.200000 8.916629
86.220000 8.865783
86.240000 8.889323
86.260000 8.877196
86.280000 8.676038
86.300000 8.457081
86.320000 8.132945
86.340000 7.990503
86.360000 7.656943
86.380000 7.418801
86.400000 7.170452
86.420000 7.011612
86.440000 6.828756
86.460000 6.480884
86.480000 6.189278
86.500000 5.783810
86.520000 5.480329
86.540000 4.880971
86.560000 4.491594
86.580000 4.076156
86.600000 3.558129
86.620000 3.072717
86.640000 2.384465
86.660000 1.728674
86.680000 1.009041
86.700000 0.204015
86.720000 -0.617240
86.740000 -1.352473
86.760000 -2.092215
86.780000 -2.679278
86.800000 -3.240533
86.820000 -3.756347
86.840000 -4.115785
86.860000 -4.648782
86.880000 -5.047555
86.900000 -5.567682
86.920000 -6.056652
86.940000 -6.423512
86.960000 -6.807190
86.980000 -7.100869
87.000000 -7.291147
87.020000 -7.396382
87.040000 -7.380698
87.060000 -7.446206
87.080000 -7.696712
87.100000 -7.926787
87.120000 -8.141473
87.140000 -8.218702
87.160000 -8.391601
87.180000 -8.413390
87.200000 -8.318602
87.220000 -8.131517
87.240000 -7.928930
87.260000 -7.730306
87.280000 -7.498901
87.300000 -7.282927
87.320000 -7.160845
87.340000 -7.207155
87.360000 -7.053608
87.380000 -6.910367
87.400000 -6.559345
87.420000 -6.217032
87.440000 -5.870085
87.460000 -5.366328
87.480000 -4.907900
87.500000 -4.509448
87.520000 -4.235220
87.540000 -3.812556
87.560000 -3.515559
87.580000 -3.102544
87.600000 -2.676421
87.620000 -2.227431
87.640000 -1.637722
87.660000 -1.143753
87.680000 -0.611779
87.700000 -0.104031
87.720000 0.364017
87.740000 0.843969
87.760000 1.347516
87.780000 1.768569
87.800000 2.321786
87.820000 2.854320
87.840000 3.394710
87.860000 3.911910
87.880000 4.368070
87.900000 4.847965
87.920000 5.282686
87.940000 5.630866
87.960000 5.961625
87.980000 6.428791
88.000000 6.758305
88.020000 7.155678
88.040000 7.480710
88.060000 7.832251
88.080000 8.094716
88.100000 8.317355
88.120000 8.439423
88.140000 8.570284
88.160000 8.705361
88.180000 8.689411
88.200000 8.823381
88.220000 8.774747
88.240000 8.790669
88.260000 8.712320
88.280000 8.544798
88.300000 8.327886
88.320000 8.089857
88.340000 7.856813
88.360000 7.589796
88.380000 7.367521
88.400000 7.130850
88.420000 6.994555
88.440000 6.745183
88.460000 6.477019
88.480000 6.150138
88.500000 5.804115
88.520000 5.419121
88.540000 4.940934
88.560000 4.508706
88.580000 4.084922
88.600000 3.556687
88.620000 3.051726
88.640000 2.381805
88.660000 1.636573
88.680000 1.016224
88.700000 0.097463
88.720000 -0.612311
88.740000 -1.371490
88.760000 -2.117337
88.780000 -2.606643
88.800000 -3.200007
88.820000 -3.710122
88.840000 -4.087891
88.860000 -4.562619
88.880000 -5.066474
88.900000 -5.426683
88.920000 -6.046780
88.940000 -6.303629
88.960000 -6.690948
88.980000 -7.067723
89.000000 -7.131564
89.020000 -7.394982
89.040000 -7.366737
89.060000 -7.419642
89.080000 -7.657321
89.100000 -7.900965
89.120000 -8.138868
89.140000 -8.253542
89.160000 -8.266033
89.180000 -8.428416
89.200000 -8.310200
89.220000 -8.125761
89.240000 -7.964247
89.260000 -7.704708
89.280000 -7.587990
89.300000 -7.308259
89.320000 -7.203458
89.340000 -7.307377
89.360000 -7.082371
89.380000 -6.832718
89.400000 -6.676511
89.420000 -6.211221
89.440000 -5.914462
89.460000 -5.367728
89.480000 -4.940206
89.500000 -4.690287
89.520000 -4.164153
89.540000 -3.910552
89.560000 -3.565047
89.580000 -3.204754
89.600000 -2.695550
89.620000 -2.247764
89.640000 -1.759089
89.660000 -1.179490
89.680000 -0.589248
89.700000 -0.151068
89.720000 0.327637
89.740000 0.886749
89.760000 1.304820
89.780000 1.825339
89.800000 2.266865
89.820000 2.917979
89.840000 3.394794
89.860000 3.914375
89.880000 4.454345
89.900000 4.892818
89.920000 5.350280
89.940000 5.684849
89.960000 6.103549
89.980000 6.477971
90.000000 6.815144
90.020000 7.175143
90.040000 7.627340
90.060000 7.816567
90.080000 8.113578
90.100000 8.382387
90.120000 8.513837
90.140000 8.631045
90.160000 8.661824
90.180000 8.821463
90.200000 8.823507
90.220000 8.816435
90.240000 8.744808
90.260000 8.762172
90.280000 8.569626
90.300000 8.258093
90.320000 8.074761
90.340000 7.857569
90.360000 7.573819
90.380000 7.279720
90.400000 7.136802
90.420000 6.920464
90.440000 6.721112
90.460000 6.394161
90.480000 6.158891
90.500000 5.768631
90.520000 5.371579
90.540000 4.966532
90.560000 4.512319
90.580000 4.052826
90.600000 3.521413
90.620000 3.084816
90.640000 2.432931
90.660000 1.665742
90.680000 0.967647
90.700000 0.286341
90.720000 -0.568523
90.740000 -1.398880
90.760000 -2.087622
90.780000 -2.599179
90.800000 -3.175277
90.820000 -3.844120
90.840000 -4.133542
90.860000 -4.581705
90.880000 -5.081303
90.900000 -5.553469
90.920000 -6.053011
90.940000 -6.322884
90.960000 -6.779492
90.980000 -7.101765
91.000000 -7.209997
91.020000 -7.303442
91.040000 -7.299353
91.060000 -7.431754
91.080000 -7.670120
91.100000 -7.953632
91.120000 -8.069328
91.140000 -8.150113
91.160000 -8.362124
91.180000 -8.372571
91.200000 -8.243964
91.220000 -8.023803
91.240000 -7.892479
91.260000 -7.682499
91.280000 -7.429150
91.300000 -7.183139
91.320000 -7.209115
91.340000 -7.257413
91.360000 -7.067387
91.380000 -6.901979
91.400000 -6.555998
91.420000 -6.324382
91.440000 -5.829083
91.460000 -5.378917
91.480000 -4.979219
91.500000 -4.546067
91.520000 -4.305965
91.540000 -3.948823
91.560000 -3.585478
91.580000 -3.254466
91.600000 -2.815363
91.620000 -2.289144
91.640000 -1.831864
91.660000 -1.166312
91.680000 -0.734252
91.700000 -0.210625
91.720000 0.313605
91.740000 0.742907
91.760000 1.279334
91.780000 1.667031
91.800000 2.282381
91.820000 2.851351
91.840000 3.361662
91.860000 3.929079
91.880000 4.421843
91.900000 4.874264
91.920000 5.375094
91.940000 5.610827
91.960000 6.034695
91.980000 6.522544
92.000000 6.778385
92.020000 7.300697
92.040000 7.538306
92.060000 7.876992
92.080000 8.263232
92.100000 8.336736
92.120000 8.481769
92.140000 8.644040
92.160000 8.704688
92.180000 8.813817
92.200000 8.827988
92.220000 8.803860
92.240000 8.919430
92.260000 8.851850
92.280000 8.603220
92.300000 8.333949
92.320000 8.216209
92.340000 7.912574
92.360000 7.615171
92.380000 7.318089
92.400000 7.133231
92.420000 7.054182
92.440000 6.702907
92.460000 6.455566
92.480000 6.120745
92.500000 5.848534
92.520000 5.340310
92.540000 4.900520
92.560000 4.461809
92.580000 4.007301
92.600000 3.601974
92.620000 3.034305
92.640000 2.446808
92.660000 1.733519
92.680000 1.106112
92.700000 0.263767
92.720000 -0.515170
92.740000 -1.369333
92.760000 -2.030166
92.780000 -2.555544
92.800000 -3.288438
92.820000 -3.738339
92.840000 -4.134032
92.860000 -4.584324
92.880000 -5.077313
92.900000 -5.590802
92.920000 -6.071159
92.940000 -6.363858
92.960000 -6.863848
92.980000 -7.184427
93.000000 -7.284061
93.020000 -7.428758
93.040000 -7.458921
93.060000 -7.483721
93.080000 -7.652027
93.100000 -7.933229
93.120000 -8.087154
93.140000 -8.204796
93.160000 -8.312972
93.180000 -8.376352
93.200000 -8.318868
93.220000 -8.079256
93.240000 -7.888390
93.260000 -7.745220
93.280000 -7.444302
93.300000 -7.221620
93.320000 -7.172272
93.340000 -7.128764
93.360000 -7.065903
93.380000 -6.814696
93.400000 -6.624853
93.420000 -6.229720
93.440000 -5.841112
93.460000 -5.430351
93.480000 -4.962807
93.500000 -4.577616
93.520000 -4.192958
93.540000 -3.941682
93.560000 -3.555707
93.580000 -3.176440
93.600000 -2.738456
93.620000 -2.327836
93.640000 -1.758305
93.660000 -1.185007
93.680000 -0.693461
93.700000 -0.152805
93.720000 0.287531
93.740000 0.825932
93.760000 1.297692
93.780000 1.761637
93.800000 2.306200
93.820000 2.835108
93.840000 3.389081
93.860000 3.933840
93.880000 4.398877
93.900000 4.850304
93.920000 5.332034
93.940000 5.710979
93.960000 6.047704
93.980000 6.453031
94.000000 6.841709
94.020000 7.246028
94.040000 7.578202
94.060000 7.829240
94.080000 8.182545
94.100000 8.387820
94.120000 8.483729
94.140000 8.615081
94.160000 8.705095
94.180000 8.764833
94.200000 8.806829
94.220000 8.795080
94.240000 8.787798
94.260000 8.750437
94.280000 8.495954
94.300000 8.345572
94.320000 8.046040
94.340000 7.879498
94.360000 7.578832
94.380000 7.312698
94.400000 7.170172
94.420000 6.927171
94.440000 6.746080
94.460000 6.454446
94.480000 6.140000
94.500000 5.774764
94.520000 5.437241
94.540000 4.931762
94.560000 4.524054
94.580000 4.051272
94.600000 3.576166
94.620000 3.091691
94.640000 2.353378
94.660000 1.723324
94.680000 0.991802
94.700000 0.208412
94.720000 -0.575776
94.740000 -1.369445
94.760000 -2.038526
94.780000 -2.606012
94.800000 -3.217707
94.820000 -3.685322
94.840000 -4.126316
94.860000 -4.587965
94.880000 -5.043732
94.900000 -5.529411
94.920000 -5.999994
94.940000 -6.410783
94.960000 -6.731152
94.980000 -7.052137
95.000000 -7.286162
95.020000 -7.427189
95.040000 -7.410595
95.060000 -7.441753
95.080000 -7.687708
95.100000 -7.938914
95.120000 -8.154020
95.140000 -8.129626
95.160000 -8.338879
95.180000 -8.389501
95.200000 -8.308379
95.220000 -8.093456
95.240000 -7.955452
95.260000 -7.751745
95.280000 -7.531430
95.300000 -7.313720
95.320000 -7.197982
95.340000 -7.247316
95.360000 -7.033345
95.380000 -6.895622
95.400000 -6.555564
95.420000 -6.245389
95.440000 -5.860339
95.460000 -5.423168
95.480000 -4.962331
95.500000 -4.569256
95.520000 -4.264795
95.540000 -3.890065
95.560000 -3.590897
95.580000 -3.120496
95.600000 -2.754602
95.620000 -2.284775
95.640000 -1.754566
95.660000 -1.150923
95.680000 -0.690366
95.700000 -0.149710
95.720000 0.346751
95.740000 0.766348
95.760000 1.350583
95.780000 1.743979
95.800000 2.284845
95.820000 2.834785
95.840000 3.386686
95.860000 3.933700
95.880000 4.434306
95.900000 4.871645
95.920000 5.378567
95.940000 5.748886
95.960000 6.086563
95.980000 6.497170
96.000000 6.838880
96.020000 7.307321
96.040000 7.563232
96.060000 7.897436
96.080000 8.172785
96.100000 8.408755
96.120000 8.555105
96.140000 8.634294
96.160000 8.738031
96.180000 8.803314
96.200000 8.835802
96.220000 8.802922
96.240000 8.801760
96.260000 8.698947
96.280000 8.600125
96.300000 8.243180
96.320000 8.083051
96.340000 7.831803
96.360000 7.549229
96.380000 7.322948
96.400000 7.042027
96.420000 6.950011
96.440000 6.679508
96.460000 6.441674
96.480000 6.068541
96.500000 5.782522
96.520000 5.386955
96.540000 4.944673
96.560000 4.482982
96.580000 4.064029
96.600000 3.604859
96.620000 3.040761
96.640000 2.465839
96.660000 1.700163
96.680000 1.063430
96.700000 0.245885
96.720000 -0.536637
96.740000 -1.353635
96.760000 -2.046242
96.780000 -2.640461
96.800000 -3.192123
96.820000 -3.791719
96.840000 -4.213319
96.860000 -4.638321
96.880000 -5.072411
96.900000 -5.584388
96.920000 -6.116292
96.940000 -6.395547
96.960000 -6.779394
96.980000 -7.085409
97.000000 -7.307251
97.020000 -7.324083
97.040000 -7.257693
97.060000 -7.412262
97.080000 -7.701151
97.100000 -7.948423
97.120000 -7.977900
97.140000 -8.138252
97.160000 -8.351860
97.180000 -8.360570
97.200000 -8.180753
97.220000 -8.001033
97.240000 -7.844056
97.260000 -7.616123
97.280000 -7.405876
97.300000 -7.144517
97.320000 -7.137474
97.340000 -7.192465
97.360000 -7.091725
97.380000 -6.862140
97.400000 -6.513848
97.420000 -6.287231
97.440000 -5.890642
97.460000 -5.367224
97.480000 -4.890914
97.500000 -4.571875
97.520000 -4.332221
97.540000 -3.924247
97.560000 -3.573631
97.580000 -3.269058
97.600000 -2.848901
97.620000 -2.353840
97.640000 -1.766973
97.660000 -1.233599
97.680000 -0.758800
97.700000 -0.184424
97.720000 0.302879
97.740000 0.719843
97.760000 1.273452
97.780000 1.728407
97.800000 2.219828
97.820000 2.867945
97.840000 3.422899
97.860000 3.919444
97.880000 4.424406
97.900000 4.951478
97.920000 5.372896
97.940000 5.672414
97.960000 6.067505
97.980000 6.491821
98.000000 6.889012
98.020000 7.247638
98.040000 7.544272
98.060000 7.970842
98.080000 8.229022
98.100000 8.316949
98.120000 8.513725
98.140000 8.637864
98.160000 8.694928
98.180000 8.757145
98.200000 8.753952
98.220000 8.853264
98.240000 8.817290
98.260000 8.766541
98.280000 8.587788
98.300000 8.312538
98.320000 8.150883
98.340000 7.853732
98.360000 7.572012
98.380000 7.265787
98.400000 7.187312
98.420000 6.930868
98.440000 6.724192
98.460000 6.429856
98.480000 6.122916
98.500000 5.837373
98.520000 5.380429
98.540000 4.879515
98.560000 4.505933
98.580000 4.117200
98.600000 3.598935
98.620000 3.107165
98.640000 2.466385
98.660000 1.875247
98.680000 1.101519
98.700000 0.301660
98.720000 -0.494809
98.740000 -1.279712
98.760000 -2.001123
98.780000 -2.626751
98.800000 -3.228798
98.820000 -3.740243
98.840000 -4.136692
98.860000 -4.650742
98.880000 -5.072383
98.900000 -5.638077
98.920000 -6.072392
98.940000 -6.448760
98.960000 -6.873174
98.980000 -7.158227
99.000000 -7.387826
99.020000 -7.376875
99.040000 -7.454132
99.060000 -7.484981
99.080000 -7.657447
99.100000 -7.904634
99.120000 -8.090529
99.140000 -8.154034
99.160000 -8.320632
99.180000 -8.377234
99.200000 -8.206981
99.220000 -8.101886
99.240000 -7.847907
99.260000 -7.716373
99.280000 -7.437944
99.300000 -7.181766
99.320000 -7.155594
99.340000 -7.185393
99.360000 -7.040486
99.380000 -6.814920
99.400000 -6.618705
99.420000 -6.247910
99.440000 -5.868419
99.460000 -5.362743
99.480000 -4.964011
99.500000 -4.604699
99.520000 -4.202060
99.540000 -3.890191
99.560000 -3.602310
99.580000 -3.210048
99.600000 -2.747222
99.620000 -2.312446
99.640000 -1.783777
99.660000 -1.243485
99.680000 -0.671587
99.700000 -0.162201
99.720000 0.338896
99.740000 0.791120
99.760000 1.329228
99.780000 1.804600
99.800000 2.310835
99.820000 2.868324
99.840000 3.400381
99.860000 3.980415
99.880000 4.475392
99.900000 4.944407
99.920000 5.320817
99.940000 5.784020
99.960000 6.113310
99.980000 6.473630
100.000000 6.829036
100.020000 7.215669
100.040000 7.646916
100.060000 7.803628
100.080000 8.127876
100.100000 8.328698
100.120000 8.510112
100.140000 8.589133
100.160000 8.592718
100.180000 8.686540
100.200000 8.760408
100.220000 8.757495
100.240000 8.658267
100.260000 8.612532
100.280000 8.473339
100.300000 8.275121
100.320000 7.993836
100.340000 7.757193
100.360000 7.477994
100.380000 7.330272
100.400000 7.094763
100.420000 6.830450
100.440000 6.693203
100.460000 6.472776
100.480000 6.164870
100.500000 5.750678
100.520000 5.369941
100.540000 4.999188
100.560000 4.624080
100.580000 4.017650
100.600000 3.590211
100.620000 3.109812
100.640000 2.474339
100.660000 1.774773
100.680000 0.939640
100.700000 0.291760
100.720000 -0.505536
100.740000 -1.305716
100.760000 -2.063634
100.780000 -2.631667
100.800000 -3.151948
100.820000 -3.678656
100.840000 -4.182161
100.860000 -4.636164
100.880000 -5.023035
100.900000 -5.494907
100.920000 -6.003621
100.940000 -6.460271
100.960000 -6.694841
100.980000 -7.023332
101.000000 -7.243171
101.020000 -7.414712
101.040000 -7.437524
101.060000 -7.347398
101.080000 -7.626079
101.100000 -7.944474
101.120000 -8.085964
101.140000 -8.107347
101.160000 -8.264927
101.180000 -8.410716
101.200000 -8.280443
101.220000 -8.042539
101.240000 -8.013734
101.260000 -7.610367
101.280000 -7.702860
101.300000 -7.114144
101.320000 -7.286904
101.340000 -7.262636
101.360000 -7.046872
101.380000 -6.948540
101.400000 -6.464332
101.420000 -6.392411
101.440000 -5.820961
101.460000 -5.429315
101.480000 -4.934996
101.500000 -4.592922
101.520000 -4.317812
101.540000 -3.875446
101.560000 -3.599873
101.580000 -3.077030
101.600000 -2.926536
101.620000 -2.213736
101.640000 -1.764634
101.660000 -1.191812
101.680000 -0.605744
101.700000 -0.245969
101.720000 0.475078
101.740000 0.799984
101.760000 1.382524
101.780000 1.743013
101.800000 2.283109
101.820000 3.002378
101.840000 3.323699
101.860000 3.905735
101.880000 4.504225
101.900000 4.945065
101.920000 5.392584
101.940000 5.668395
101.960000 6.085541
101.980000 6.547680
102.000000 6.804880
102.020000 7.136578
102.040000 7.520046
102.060000 7.887452
102.080000 8.133071
102.100000 8.263330
102.120000 8.455275
102.140000 8.656629
102.160000 8.645272
102.180000 8.721353
102.200000 8.722711
102.220000 8.765883
102.240000 8.800920
102.260000 8.636212
102.280000 8.517520
102.300000 8.267699
102.320000 8.138000
102.340000 7.813584
102.360000 7.483147
102.380000 7.337078
102.400000 7.127965
102.420000 6.936217
102.440000 6.671260
102.460000 6.425711
102.480000 6.190874
102.500000 5.878025
102.520000 5.366090
102.540000 4.986823
102.560000 4.596577
102.580000 4.158482
102.600000 3.609004
102.620000 3.064609
102.640000 2.526557
102.660000 1.817315
102.680000 1.080612
102.700000 0.237651
102.720000 -0.531526
102.740000 -1.258595
102.760000 -2.040430
102.780000 -2.690481
102.800000 -3.258807
102.820000 -3.745410
102.840000 -4.150892
102.860000 -4.680093
102.880000 -5.146223
102.900000 -5.545585
102.920000 -6.027595
102.940000 -6.398684
102.960000 -6.847856
102.980000 -7.102647
103.000000 -7.209773
103.020000 -7.316269
103.040000 -7.356010
103.060000 -7.408509
103.080000 -7.612916
103.100000 -7.899397
103.120000 -7.991511
103.140000 -8.174857
103.160000 -8.305242
103.180000 -8.339327
103.200000 -8.228350
103.220000 -8.085068
103.240000 -7.871390
103.260000 -7.640895
103.280000 -7.423479
103.300000 -7.222474
103.320000 -7.240104
103.340000 -7.179540
103.360000 -7.110461
103.380000 -6.935783
103.400000 -6.621898
103.420000 -6.244507
103.440000 -5.890026
103.460000 -5.402387
103.480000 -4.921553
103.500000 -4.547229
103.520000 -4.242166
103.540000 -3.943180
103.560000 -3.570074
103.580000 -3.212498
103.600000 -2.781839
103.620000 -2.329922
103.640000 -1.713648
103.660000 -1.201615
103.680000 -0.655750
103.700000 -0.110178
103.720000 0.298734
103.740000 0.849234
103.760000 1.295970
103.780000 1.751345
103.800000 2.268685
103.820000 2.849167
103.840000 3.403742
103.860000 3.972923
103.880000 4.375324
103.900000 4.896109
103.920000 5.358696
103.940000 5.626371
103.960000 6.007430
103.980000 6.359279
104.000000 6.814570
104.020000 7.124199
104.040000 7.498635
104.060000 7.810223
104.080000 8.105078
104.100000 8.283159
104.120000 8.424201
104.140000 8.538357
104.160000 8.623679
104.180000 8.688669
104.200000 8.729138
104.220000 8.827708
104.240000 8.754288
104.260000 8.776092
104.280000 8.632767
104.300000 8.391097
104.320000 8.126658
104.340000 7.891835
104.360000 7.661410
104.380000 7.372436
104.400000 7.171600
104.420000 6.971296
104.440000 6.814976
104.460000 6.547540
104.480000 6.167054
104.500000 5.859288
104.520000 5.458498
104.540000 4.955679
104.560000 4.584996
104.580000 4.078536
104.600000 3.637234
104.620000 3.158809
104.640000 2.514136
104.660000 1.889432
104.680000 1.124834
104.700000 0.303943
104.720000 -0.425268
104.740000 -1.282428
104.760000 -2.062318
104.780000 -2.645404
104.800000 -3.237494
104.820000 -3.722277
104.840000 -4.230235
104.860000 -4.694418
104.880000 -5.062007
104.900000 -5.617394
104.920000 -6.118197
104.940000 -6.536911
104.960000 -6.838054
104.980000 -7.161223
105.000000 -7.440395
105.020000 -7.481144
105.040000 -7.472392
105.060000 -7.470278
105.080000 -7.655122
105.100000 -7.970240
105.120000 -8.099407
105.140000 -8.133449
105.160000 -8.360052
105.180000 -8.373467
105.200000 -8.280541
105.220000 -8.115497
105.240000 -7.829226
105.260000 -7.734913
105.280000 -7.447144
105.300000 -7.175647
105.320000 -7.134351
105.340000 -7.147724
105.360000 -7.016373
105.380000 -6.832340
105.400000 -6.538620
105.420000 -6.221107
105.440000 -5.848422
105.460000 -5.358178
105.480000 -4.897411
105.500000 -4.506913
105.520000 -4.212717
105.540000 -3.843210
105.560000 -3.544742
105.580000 -3.147005
105.600000 -2.754126
105.620000 -2.316619
105.640000 -1.765194
105.660000 -1.147016
105.680000 -0.704495
105.700000 -0.158700
105.720000 0.367630
105.740000 0.815220
105.760000 1.316246
105.780000 1.738868
105.800000 2.282535
105.820000 2.879204
105.840000 3.344718
105.860000 3.891591
105.880000 4.424294
105.900000 4.874852
105.920000 5.322175
105.940000 5.664558
105.960000 5.996129
105.980000 6.439658
106.000000 6.757044
106.020000 7.138048
106.040000 7.484701
106.060000 7.779612
106.080000 8.078808
106.100000 8.310578
106.120000 8.404120
106.140000 8.520712
106.160000 8.662398
106.180000 8.682871
106.200000 8.714519
106.220000 8.675337
106.240000 8.758573
106.260000 8.650832
106.280000 8.556561
106.300000 8.229316
106.320000 8.099449
106.340000 7.897520
106.360000 7.525969
106.380000 7.347566
106.400000 7.146814
106.420000 6.995130
106.440000 6.770558
106.460000 6.483615
106.480000 6.174924
106.500000 5.927205
106.520000 5.454563
106.540000 5.013023
106.560000 4.620705
106.580000 4.116051
106.600000 3.665241
106.620000 3.094464
106.640000 2.467421
106.660000 1.788174
106.680000 1.038028
106.700000 0.235411
106.720000 -0.555990
106.740000 -1.345219
106.760000 -2.068633
106.780000 -2.685608
106.800000 -3.237242
106.820000 -3.792630
106.840000 -4.196473
106.860000 -4.640113
106.880000 -5.153855
106.900000 -5.544437
106.920000 -6.067238
106.940000 -6.414494
106.960000 -6.790442
106.980000 -7.087622
107.000000 -7.277942
107.020000 -7.383625
107.040000 -7.459117
107.060000 -7.436796
107.080000 -7.560880
107.100000 -7.910600
107.120000 -8.061906
107.140000 -8.168500
107.160000 -8.233979
107.180000 -8.348863
107.200000 -8.283089
107.220000 -8.106185
107.240000 -7.879694
107.260000 -7.722058
107.280000 -7.554270
107.300000 -7.223538
107.320000 -7.249389
107.340000 -7.212980
107.360000 -7.064166
107.380000 -6.833937
107.400000 -6.594843
107.420000 -6.291236
107.440000 -5.847764
107.460000 -5.375262
107.480000 -4.985394
107.500000 -4.606323
107.520000 -4.204679
107.540000 -3.920382
107.560000 -3.587578
107.580000 -3.230997
107.600000 -2.724089
107.620000 -2.343743
107.640000 -1.812008
107.660000 -1.163148
107.680000 -0.673604
107.700000 -0.171079
107.720000 0.319991
107.740000 0.851629
107.760000 1.336019
107.780000 1.739400
107.800000 2.272326
107.820000 2.910964
107.840000 3.340783
107.860000 3.910902
107.880000 4.452272
107.900000 4.935374
107.920000 5.350322
107.940000 5.698614
107.960000 6.121474
107.980000 6.462189
108.000000 6.826515
108.020000 7.194832
108.040000 7.562098
108.060000 7.827896
108.080000 8.131419
108.100000 8.370708
108.120000 8.512576
108.140000 8.565271
108.160000 8.703218
108.180000 8.779915
108.200000 8.716325
108.220000 8.791439
108.240000 8.721661
108.260000 8.747651
108.280000 8.507129
108.300000 8.248459
108.320000 8.127442
108.340000 7.849545
108.360000 7.528448
108.380000 7.296916
108.400000 7.145568
108.420000 6.911613
108.440000 6.707822
108.460000 6.401723
108.480000 6.193843
108.500000 5.795727
108.520000 5.400202
108.540000 4.998922
108.560000 4.552312
108.580000 4.087919
108.600000 3.565831
108.620000 3.106997
108.640000 2.450589
108.660000 1.722316
108.680000 1.019949
108.700000 0.257144
108.720000 -0.567374
108.740000 -1.359951
108.760000 -2.103922
108.780000 -2.649031
108.800000 -3.281661
108.820000 -3.824949
108.840000 -4.200534
108.860000 -4.676970
108.880000 -5.105823
108.900000 -5.593365
108.920000 -6.020943
108.940000 -6.424534
108.960000 -6.746220
108.980000 -7.068115
109.000000 -7.224561
109.020000 -7.270394
109.040000 -7.274931
109.060000 -7.323060
109.080000 -7.626905
109.100000 -7.827644
109.120000 -7.960634
109.140000 -8.055773
109.160000 -8.305312
109.180000 -8.309471
109.200000 -8.167603
109.220000 -8.040257
109.240000 -7.832881
109.260000 -7.649185
109.280000 -7.373374
109.300000 -7.221928
109.320000 -7.179064
109.340000 -7.214702
109.360000 -7.092971
109.380000 -6.930882
109.400000 -6.607110
109.420000 -6.273648
109.440000 -5.909771
109.460000 -5.417062
109.480000 -4.924620
109.500000 -4.599756
109.520000 -4.330275
109.540000 -3.971929
109.560000 -3.613205
109.580000 -3.281913
109.600000 -2.903234
109.620000 -2.335874
109.640000 -1.816251
109.660000 -1.198394
109.680000 -0.727979
109.700000 -0.167018
109.720000 0.344581
109.740000 0.781332
109.760000 1.279866
109.780000 1.699098
109.800000 2.292337
109.820000 2.790465
109.840000 3.418236
109.860000 3.887713
109.880000 4.426016
109.900000 4.906555
109.920000 5.287559
109.940000 5.685255
109.960000 5.930202
109.980000 6.429310
110.000000 6.762562
110.020000 7.098110
110.040000 7.518631
110.060000 7.781068
110.080000 8.162198
110.100000 8.291197
110.120000 8.402790
110.140000 8.603584
110.160000 8.650019
110.180000 8.659388
110.200000 8.817976
110.220000 8.753966
110.240000 8.827302
110.260000 8.794240
110.280000 8.574751
110.300000 8.432449
110.320000 8.180949
110.340000 7.829464
110.360000 7.737980
110.380000 7.344836
110.400000 7.132769
110.420000 7.090562
110.440000 6.744399
110.460000 6.610569
110.480000 6.175933
110.500000 5.850634
110.520000 5.531610
110.540000 4.951968
110.560000 4.545101
110.580000 4.054073
110.600000 3.624883
110.620000 3.105036
110.640000 2.465881
110.660000 1.748026
110.680000 1.066160
110.700000 0.233618
110.720000 -0.542196
110.740000 -1.413570
110.760000 -2.181108
110.780000 -2.643892
110.800000 -3.327004
110.820000 -3.796957
110.840000 -4.263241
110.860000 -4.716852
110.880000 -5.036983
110.900000 -5.623696
110.920000 -6.166186
110.940000 -6.459627
110.960000 -6.827173
110.980000 -7.157849
111.000000 -7.354666
111.020000 -7.490233
111.040000 -7.373290
111.060000 -7.419530
111.080000 -7.645390
111.100000 -7.905292
111.120000 -8.006229
111.140000 -8.101914
111.160000 -8.301966
111.180000 -8.348149
111.200000 -8.263288
111.220000 -8.031673
111.240000 -7.824031
111.260000 -7.676407
111.280000 -7.426573
111.300000 -7.108137
111.320000 -7.107913
111.340000 -7.137418
111.360000 -7.045962
111.380000 -6.799334
111.400000 -6.506076
111.420000 -6.256592
111.440000 -5.855031
111.460000 -5.332818
111.480000 -4.907718
111.500000 -4.574494
111.520000 -4.218808
111.540000 -3.915943
111.560000 -3.541647
111.580000 -3.210944
111.600000 -2.777498
111.620000 -2.310303
111.640000 -1.767911
111.660000 -1.164772
111.680000 -0.667078
111.700000 -0.131422
111.720000 0.318507
111.740000 0.873992
111.760000 1.311891
111.780000 1.724052
111.800000 2.277409
111.820000 2.856351
111.840000 3.357811
111.860000 3.875978
111.880000 4.392282
111.900000 4.877849
111.920000 5.314964
111.940000 5.593785
111.960000 5.988498
111.980000 6.379696
112.000000 6.701423
112.020000 7.086628
112.040000 7.434877
112.060000 7.764825
112.080000 8.079116
112.100000 8.254620
112.120000 8.381547
112.140000 8.564571
112.160000 8.617167
112.180000 8.684286
112.200000 8.677858
112.220000 8.735216
112.240000 8.734516
112.260000 8.659738
112.280000 8.504300
112.300000 8.265417
112.320000 8.120356
112.340000 7.848887
112.360000 7.563694
112.380000 7.333073
112.400000 7.173112
112.420000 6.994737
112.440000 6.808619
112.460000 6.475521
112.480000 6.230154
112.500000 5.926673
112.520000 5.476619
112.540000 5.044335
112.560000 4.568402
112.580000 4.153945
112.600000 3.649179
112.620000 3.083065
112.640000 2.383919
112.660000 1.756106
112.680000 1.006856
112.700000 0.204505
112.720000 -0.629773
112.740000 -1.420361
112.760000 -2.052935
112.780000 -2.683101
112.800000 -3.304108
112.820000 -3.793778
112.840000 -4.158412
112.860000 -4.623365
112.880000 -5.086541
112.900000 -5.579641
112.920000 -6.005008
112.940000 -6.346928
112.960000 -6.743909
112.980000 -7.062304
113.000000 -7.239936
113.020000 -7.345200
113.040000 -7.411030
113.060000 -7.427680
113.080000 -7.596252
113.100000 -7.794386
113.120000 -8.070714
113.140000 -8.144414
113.160000 -8.239399
113.180000 -8.323587
113.200000 -8.214249
113.220000 -8.144736
113.240000 -7.860510
113.260000 -7.718123
113.280000 -7.502990
113.300000 -7.218105
113.320000 -7.287030
113.340000 -7.247708
113.360000 -7.023094
113.380000 -6.899865
113.400000 -6.583431
113.420000 -6.332308
113.440000 -5.877619
113.460000 -5.314277
113.480000 -5.093822
113.500000 -4.629037
113.520000 -4.229045
113.540000 -3.944076
113.560000 -3.649851
113.580000 -3.251316
113.600000 -2.734339
113.620000 -2.293191
113.640000 -1.826655
113.660000 -1.162756
113.680000 -0.618431
113.700000 -0.181694
113.720000 0.388411
113.740000 0.828999
113.760000 1.384541
113.780000 1.783665
113.800000 2.317711
113.820000 2.938620
113.840000 3.345054
113.860000 3.959074
113.880000 4.510750
113.900000 4.903461
113.920000 5.339302
113.940000 5.689260
113.960000 6.106952
113.980000 6.457988
114.000000 6.683289
114.020000 7.182971
114.040000 7.559031
114.060000 7.749519
114.080000 8.058251
114.100000 8.278426
114.120000 8.481713
114.140000 8.537852
114.160000 8.611566
114.180000 8.712362
114.200000 8.764763
114.220000 8.734348
114.240000 8.735846
114.260000 8.700375
114.280000 8.527070
114.300000 8.294446
114.320000 8.077842
114.340000 7.864374
114.360000 7.525059
114.380000 7.349835
114.400000 7.140835
114.420000 6.960905
114.440000 6.719417
114.460000 6.480100
114.480000 6.235433
114.500000 5.839740
114.520000 5.424372
114.540000 5.032208
114.560000 4.610258
114.580000 4.111640
114.600000 3.645300
114.620000 3.109223
114.640000 2.533209
114.660000 1.765838
114.680000 1.055980
114.700000 0.263067
114.720000 -0.523838
114.740000 -1.369851
114.760000 -2.098054
114.780000 -2.643359
114.800000 -3.309584
114.820000 -3.780727
114.840000 -4.236564
114.860000 -4.664577
114.880000 -5.115794
114.900000 -5.582498
114.920000 -6.037761
114.940000 -6.421104
114.960000 -6.787222
114.980000 -7.101555
115.000000 -7.234853
115.020000 -7.371372
115.040000 -7.296216
115.060000 -7.378220
115.080000 -7.624133
115.100000 -7.923021
115.120000 -8.023019
115.140000 -8.088106
115.160000 -8.349227
115.180000 -8.362068
115.200000 -8.239791
115.220000 -8.043912
115.240000 -7.875801
115.260000 -7.716373
115.280000 -7.419950
115.300000 -7.191499
115.320000 -7.263056
115.340000 -7.218903
115.360000 -7.107829
115.380000 -6.932871
115.400000 -6.605542
115.420000 -6.308460
115.440000 -5.883388
115.460000 -5.424554
115.480000 -4.950932
115.500000 -4.556681
115.520000 -4.260160
115.540000 -3.985190
115.560000 -3.569332
115.580000 -3.213072
115.600000 -2.820012
115.620000 -2.344668
115.640000 -1.750953
115.660000 -1.123280
115.680000 -0.660427
115.700000 -0.141322
115.720000 0.347326
115.740000 0.907866
115.760000 1.300801
115.780000 1.731614
115.800000 2.312712
115.820000 2.877930
115.840000 3.411948
115.860000 3.918800
115.880000 4.423397
115.900000 4.897929
115.920000 5.327959
115.940000 5.590074
115.960000 5.987167
115.980000 6.375257
116.000000 6.733925
116.020000 7.096668
116.040000 7.436740
116.060000 7.784527
116.080000 8.070224
116.100000 8.262308
116.120000 8.341077
116.140000 8.520600
116.160000 8.585506
116.180000 8.633327
116.200000 8.701916
116.220000 8.729250
116.240000 8.766499
116.260000 8.739263
116.280000 8.545946
116.300000 8.324623
116.320000 8.162954
116.340000 7.838706
116.360000 7.605494
116.380000 7.341419
116.400000 7.143425
116.420000 7.015420
116.440000 6.805930
116.460000 6.511089
116.480000 6.247728
116.500000 5.929137
116.520000 5.476983
116.540000 5.030289
116.560000 4.563935
116.580000 4.164027
116.600000 3.688865
116.620000 3.161862
116.640000 2.521348
116.660000 1.924497
116.680000 1.176241
116.700000 0.343264
116.720000 -0.478201
116.740000 -1.296880
116.760000 -1.979194
116.780000 -2.654674
116.800000 -3.248697
116.820000 -3.761444
116.840000 -4.136048
116.860000 -4.633392
116.880000 -5.097869
116.900000 -5.562599
116.920000 -6.063290
116.940000 -6.418247
116.960000 -6.858471
116.980000 -7.143299
117.000000 -7.339976
117.020000 -7.417219
117.040000 -7.492571
117.060000 -7.494924
117.080000 -7.630294
117.100000 -7.908639
117.120000 -8.059021
117.140000 -8.233307
117.160000 -8.336484
117.180000 -8.386826
117.200000 -8.314051
117.220000 -8.150729
117.240000 -7.924869
117.260000 -7.742279
117.280000 -7.491549
117.300000 -7.255256
117.320000 -7.195112
117.340000 -7.159795
117.360000 -7.066855
117.380000 -6.873090
117.400000 -6.589788
117.420000 -6.262137
117.440000 -5.896565
117.460000 -5.369059
117.480000 -5.000798
117.500000 -4.543364
117.520000 -4.226454
117.540000 -3.917918
117.560000 -3.519242
117.580000 -3.193440
117.600000 -2.734997
117.620000 -2.278124
117.640000 -1.740408
117.660000 -1.152715
117.680000 -0.610183
117.700000 -0.122529
117.720000 0.405229
117.740000 0.849304
117.760000 1.352459
117.780000 1.818113
117.800000 2.284873
117.820000 2.895658
117.840000 3.369084
117.860000 3.922917
117.880000 4.420695
117.900000 4.853847
117.920000 5.309446
117.940000 5.648524
117.960000 5.998566
117.980000 6.399734
118.000000 6.710931
118.020000 7.113374
118.040000 7.458879
118.060000 7.715057
118.080000 8.045816
118.100000 8.223435
118.120000 8.419328
118.140000 8.508935
118.160000 8.590799
118.180000 8.672131
118.200000 8.699087
118.220000 8.747707
118.240000 8.677774
118.260000 8.664177
118.280000 8.512982
118.300000 8.300803
118.320000 8.075853
118.340000 7.857317
118.360000 7.569632
118.380000 7.388722
118.400000 7.173826
118.420000 6.967893
118.440000 6.768695
118.460000 6.500951
118.480000 6.225364
118.500000 5.830204
118.520000 5.478663
118.540000 5.021243
118.560000 4.600386
118.580000 4.144352
118.600000 3.611972
118.620000 3.074089
118.640000 2.470894
118.660000 1.708915
118.680000 0.993217
118.700000 0.202601
118.720000 -0.637671
118.740000 -1.321456
118.760000 -2.122756
118.780000 -2.687876
118.800000 -3.256777
118.820000 -3.766443
118.840000 -4.172429
118.860000 -4.677824
118.880000 -5.085000
118.900000 -5.557152
118.920000 -6.010091
118.940000 -6.423008
118.960000 -6.735983
118.980000 -7.054994
119.000000 -7.226423
119.020000 -7.421700
119.040000 -7.441991
119.060000 -7.407403
119.080000 -7.627648
119.100000 -7.859487
119.120000 -8.127386
119.140000 -8.120594
119.160000 -8.257141
119.180000 -8.339537
119.200000 -8.256273
119.220000 -8.114867
119.240000 -7.890631
119.260000 -7.736020
119.280000 -7.499055
119.300000 -7.244768
119.320000 -7.234699
119.340000 -7.226899
119.360000 -7.040472
119.380000 -6.862070
119.400000 -6.563490
119.420000 -6.311681
119.440000 -5.857272
119.460000 -5.381802
119.480000 -5.000252
119.500000 -4.592992
119.520000 -4.257836
119.540000 -3.896605
119.560000 -3.583195
119.580000 -3.205791
119.600000 -2.736580
119.620000 -2.283837
119.640000 -1.796520
119.660000 -1.111265
119.680000 -0.667274
119.700000 -0.141448
119.720000 0.374450
119.740000 0.843955
119.760000 1.392817
119.780000 1.732987
119.800000 2.313958
119.820000 2.916887
119.840000 3.366871
119.860000 3.889239
119.880000 4.429377
119.900000 4.892160
119.920000 5.319305
119.940000 5.650442
119.960000 6.031908
119.980000 6.435093
120.000000 6.724711
120.020000 7.131368
120.040000 7.446304
120.060000 7.774949
120.080000 8.019812
120.100000 8.263877
120.120000 8.436958
120.140000 8.495450
120.160000 8.670436
120.180000 8.721703
120.200000 8.741279
120.220000 8.752958
120.240000 8.784452
120.260000 8.736714
120.280000 8.567442
120.300000 8.291071
120.320000 8.155953
120.340000 7.918862
120.360000 7.590553
120.380000 7.353476
120.400000 7.188180
120.420000 7.039646
120.440000 6.744511
120.460000 6.514534
120.480000 6.227171
120.500000 5.890740
120.520000 5.483382
120.540000 5.021649
120.560000 4.613773
120.580000 4.170581
120.600000 3.626270
120.620000 3.109321
120.640000 2.489028
120.660000 1.713676
120.680000 1.064018
120.700000 0.199380
120.720000 -0.614314
120.740000 -1.390814
120.760000 -2.107507
120.780000 -2.705310
120.800000 -3.324469
120.820000 -3.841683
120.840000 -4.258522
120.860000 -4.653109
120.880000 -5.196313
120.900000 -5.640976
120.920000 -6.054369
120.940000 -6.422294
120.960000 -6.801575
120.980000 -7.118765
121.000000 -7.259779
121.020000 -7.278656
121.040000 -7.279832
121.060000 -7.445744
121.080000 -7.588536
121.100000 -7.884833
121.120000 -7.974651
121.140000 -8.096872
121.160000 -8.322047
121.180000 -8.288480
121.200000 -8.183427
121.220000 -8.030889
121.240000 -7.852192
121.260000 -7.646440
121.280000 -7.372576
121.300000 -7.176893
121.320000 -7.225219
121.340000 -7.199369
121.360000 -7.098096
121.380000 -6.850475
121.400000 -6.631420
121.420000 -6.309161
121.440000 -5.843577
121.460000 -5.392220
121.480000 -4.940430
121.500000 -4.607500
121.520000 -4.262485
121.540000 -3.921377
121.560000 -3.578714
121.580000 -3.279000
121.600000 -2.759363
121.620000 -2.284089
121.640000 -1.781886
121.660000 -1.132550
121.680000 -0.661813
121.700000 -0.101580
121.720000 0.358220
121.740000 0.840020
121.760000 1.296250
121.780000 1.777881
121.800000 2.281596
121.820000 2.868267
121.840000 3.398281
121.860000 3.887657
121.880000 4.446657
121.900000 4.894877
121.920000 5.290402
121.940000 5.616806
121.960000 5.999476
121.980000 6.382846
122.000000 6.708369
122.020000 7.074949
122.040000 7.488272
122.060000 7.773059
122.080000 8.032541
122.100000 8.241695
122.120000 8.377360
122.140000 8.523051
122.160000 8.541437
122.180000 8.647919
122.200000 8.711494
122.220000 8.756137
122.240000 8.745270
122.260000 8.736462
122.280000 8.573701
122.300000 8.375077
122.320000 8.126027
122.340000 7.862610
122.360000 7.661508
122.380000 7.339066
122.400000 7.228384
122.420000 7.001249
122.440000 6.807162
122.460000 6.580658
122.480000 6.255892
122.500000 5.906382
122.520000 5.477683
122.540000 5.024072
122.560000 4.617414
122.580000 4.149968
122.600000 3.601946
122.620000 3.156877
122.640000 2.551357
122.660000 1.812330
122.680000 1.051345
122.700000 0.267198
122.720000 -0.503491
122.740000 -1.333275
122.760000 -2.122742
122.780000 -2.698169
122.800000 -3.216391
122.820000 -3.789465
122.840000 -4.219284
122.860000 -4.650014
122.880000 -5.061755
122.900000 -5.575888
122.920000 -6.078777
122.940000 -6.458605
122.960000 -6.784463
122.980000 -7.122294
123.000000 -7.337876
123.020000 -7.400107
123.040000 -7.479562
123.060000 -7.436488
123.080000 -7.632871
123.100000 -7.855188
123.120000 -8.099337
123.140000 -8.204390
123.160000 -8.223911
123.180000 -8.379656
123.200000 -8.300845
123.220000 -8.100527
123.240000 -7.831383
123.260000 -7.725741
123.280000 -7.517511
123.300000 -7.216341
123.320000 -7.154866
123.340000 -7.208401
123.360000 -7.124297
123.380000 -6.820213
123.400000 -6.558603
123.420000 -6.314188
123.440000 -5.879845
123.460000 -5.351793
123.480000 -4.954391
123.500000 -4.629807
123.520000 -4.215153
123.540000 -3.881999
123.560000 -3.607015
123.580000 -3.190611
123.600000 -2.712662
123.620000 -2.251573
123.640000 -1.800021
123.660000 -1.121558
123.680000 -0.580790
123.700000 -0.148618
123.720000 0.342466
123.740000 0.898806
123.760000 1.372526
123.780000 1.707430
123.800000 2.272158
123.820000 2.906105
123.840000 3.401516
123.860000 3.812921
123.880000 4.422655
123.900000 4.921749
123.920000 5.308424
123.940000 5.538149
123.960000 6.019865
123.980000 6.419913
124.000000 6.667017
124.020000 7.044869
124.040000 7.460125
124.060000 7.724691
124.080000 7.986596
124.100000 8.196856
124.120000 8.386560
124.140000 8.490423
124.160000 8.528890
124.180000 8.673083
124.200000 8.727878
124.220000 8.681485
124.240000 8.700908
124.260000 8.741951
124.280000 8.509524
124.300000 8.283355
124.320000 8.084283
124.340000 7.953702
124.360000 7.611138
124.380000 7.357607
124.400000 7.205236
124.420000 7.086796
124.440000 6.797864
124.460000 6.533859
124.480000 6.289948
124.500000 5.932708
124.520000 5.483382
124.540000 5.057428
124.560000 4.638909
124.580000 4.128795
124.600000 3.628034
124.620000 3.099407
124.640000 2.488916
124.660000 1.670924
124.680000 0.951991
124.700000 0.214616
124.720000 -0.585859
124.740000 -1.475339
124.760000 -2.149461
124.780000 -2.628614
124.800000 -3.266481
124.820000 -3.806633
124.840000 -4.214075
124.860000 -4.552914
124.880000 -5.069779
124.900000 -5.585719
124.920000 -6.031334
124.940000 -6.340122
124.960000 -6.714292
124.980000 -7.098922
125.000000 -7.189314
125.020000 -7.328326
125.040000 -7.443895
125.060000 -7.430046
125.080000 -7.515719
125.100000 -7.851954
125.120000 -8.080320
125.140000 -8.158599
125.160000 -8.222917
125.180000 -8.306839
125.200000 -8.335014
125.220000 -8.060996
125.240000 -7.864795
125.260000 -7.767135
125.280000 -7.524807
125.300000 -7.224267
125.320000 -7.252133
125.340000 -7.281190
125.360000 -7.102255
125.380000 -6.804250
125.400000 -6.639570
125.420000 -6.376881
125.440000 -5.825638
125.460000 -5.402177
125.480000 -5.036017
125.500000 -4.678623
125.520000 -4.221889
125.540000 -3.907051
125.560000 -3.668952
125.580000 -3.224219
125.600000 -2.676141
125.620000 -2.327780
125.640000 -1.802891
125.660000 -1.116572
125.680000 -0.634703
125.700000 -0.143604
125.720000 0.318227
125.740000 0.901803
125.760000 1.353061
125.780000 1.734121
125.800000 2.331266
125.820000 2.939825
125.840000 3.358595
125.860000 3.899279
125.880000 4.493582
125.900000 4.933498
125.920000 5.291536
125.940000 5.630922
125.960000 6.117441
125.980000 6.393895
126.000000 6.706240
126.020000 7.114522
126.040000 7.496954
126.060000 7.752039
126.080000 7.961726
126.100000 8.273847
126.120000 8.412942
126.140000 8.494820
126.160000 8.573029
126.180000 8.695782
126.200000 8.735132
126.220000 8.723019
126.240000 8.736938
126.260000 8.755129
126.280000 8.559166
126.300000 8.306489
126.320000 8.170096
126.340000 7.894720
126.360000 7.614849
126.380000 7.342847
126.400000 7.241911
126.420000 7.028640
126.440000 6.746990
126.460000 6.567439
126.480000 6.260667
126.500000 5.879047
126.520000 5.483158
126.540000 5.030667
126.560000 4.661132
126.580000 4.145388
126.600000 3.577538
126.620000 3.205273
126.640000 2.498845
126.660000 1.758053
126.680000 1.027189
126.700000 0.277211
126.720000 -0.531848
126.740000 -1.407058
126.760000 -2.117001
126.780000 -2.667165
126.800000 -3.259606
126.820000 -3.834486
126.840000 -4.242768
126.860000 -4.649314
126.880000 -5.097897
126.900000 -5.613992
126.920000 -6.051429
126.940000 -6.430976
126.960000 -6.747200
126.980000 -7.075089
127.000000 -7.271710
127.020000 -7.300725
127.040000 -7.311788
127.060000 -7.361934
127.080000 -7.611488
127.100000 -7.895294
127.120000 -7.993514
127.140000 -8.090025
127.160000 -8.336344
127.180000 -8.302218
127.200000 -8.188776
127.220000 -8.032275
127.240000 -7.847136
127.260000 -7.680202
127.280000 -7.340957
127.300000 -7.255914
127.320000 -7.191303
127.340000 -7.211566
127.360000 -7.096864
127.380000 -6.867419
127.400000 -6.630818
127.420000 -6.266142
127.440000 -5.859443
127.460000 -5.422762
127.480000 -4.948047
127.500000 -4.549554
127.520000 -4.314857
127.540000 -3.908199
127.560000 -3.608149
127.580000 -3.220326
127.600000 -2.764475
127.620000 -2.310191
127.640000 -1.722848
127.660000 -1.182850
127.680000 -0.647110
127.700000 -0.126520
127.720000 0.332440
127.740000 0.811075
127.760000 1.301109
127.780000 1.755210
127.800000 2.275575
127.820000 2.831999
127.840000 3.426218
127.860000 3.881439
127.880000 4.383614
127.900000 4.872961
127.920000 5.240830
127.940000 5.622954
127.960000 5.925790
127.980000 6.350205
128.000000 6.719011
128.020000 7.079220
128.040000 7.426727
128.060000 7.771896
128.080000 8.049261
128.100000 8.198747
128.120000 8.392876
128.140000 8.481825
128.160000 8.610096
128.180000 8.652722
128.200000 8.755871
128.220000 8.791439
128.240000 8.826350
128.260000 8.788205
128.280000 8.649459
128.300000 8.402314
128.320000 8.165587
128.340000 7.947148
128.360000 7.687330
128.380000 7.404084
128.400000 7.230442
128.420000 7.088798
128.440000 6.853906
128.460000 6.592491
128.480000 6.220155
128.500000 5.931224
128.520000 5.513881
128.540000 4.966014
128.560000 4.547621
128.580000 4.143624
128.600000 3.659276
128.620000 3.135410
128.640000 2.470992
128.660000 1.825535
128.680000 1.094335
128.700000 0.292880
128.720000 -0.593001
128.740000 -1.354532
128.760000 -2.070804
128.780000 -2.705520
128.800000 -3.239399
128.820000 -3.831489
128.840000 -4.173633
128.860000 -4.628211
128.880000 -5.086709
128.900000 -5.608152
128.920000 -6.082684
128.940000 -6.431312
128.960000 -6.800973
128.980000 -7.092453
129.000000 -7.402109
129.020000 -7.361892
129.040000 -7.399953
129.060000 -7.445730
129.080000 -7.632731
129.100000 -7.884511
129.120000 -8.003596
129.140000 -8.189589
129.160000 -8.315647
129.180000 -8.381295
129.200000 -8.223519
129.220000 -8.100527
129.240000 -7.915123
129.260000 -7.711486
129.280000 -7.452564
129.300000 -7.205446
129.320000 -7.188628
129.340000 -7.190224
129.360000 -7.078394
129.380000 -6.852813
129.400000 -6.595515
129.420000 -6.313236
129.440000 -5.888752
129.460000 -5.410243
129.480000 -4.991612
129.500000 -4.613857
129.520000 -4.303192
129.540000 -3.870979
129.560000 -3.573295
129.580000 -3.252128
129.600000 -2.731006
129.620000 -2.261908
129.640000 -1.738406
129.660000 -1.192975
129.680000 -0.653985
129.700000 -0.095335
129.720000 0.400258
129.740000 0.779511
129.760000 1.372022
129.780000 1.835603
129.800000 2.329782
129.820000 2.881389
129.840000 3.394472
129.860000 3.999908
129.880000 4.412965
129.900000 4.905295
129.920000 5.311267
129.940000 5.700154
129.960000 6.050560
129.980000 6.373450
130.000000 6.751233
130.020000 7.118555
130.040000 7.461456
130.060000 7.743217
130.080000 8.002840
130.100000 8.188146
130.120000 8.414189
130.140000 8.465511
130.160000 8.545946
130.180000 8.642766
130.200000 8.659794
130.220000 8.762396
130.240000 8.671066
130.260000 8.626382
130.280000 8.534800
130.300000 8.302708
130.320000 8.076974
130.340000 7.843145
130.360000 7.609723
130.380000 7.391215
130.400000 7.176221
130.420000 6.995662
130.440000 6.801519
130.460000 6.532178
130.480000 6.240194
130.500000 5.855634
130.520000 5.485287
130.540000 5.042150
130.560000 4.596129
130.580000 4.148091
130.600000 3.623735
130.620000 3.133085
130.640000 2.459929
130.660000 1.738308
130.680000 1.010763
130.700000 0.199814
130.720000 -0.594625
130.740000 -1.356450
130.760000 -2.116007
130.780000 -2.648891
130.800000 -3.224079
130.820000 -3.758363
130.840000 -4.135334
130.860000 -4.628925
130.880000 -5.021467
130.900000 -5.532324
130.920000 -6.006254
130.940000 -6.370089
130.960000 -6.716729
130.980000 -7.017549
131.000000 -7.211538
131.020000 -7.357145
131.040000 -7.374117
131.060000 -7.384549
131.080000 -7.595944
131.100000 -7.835892
131.120000 -8.092447
131.140000 -8.122723
131.160000 -8.232103
131.180000 -8.338500
131.200000 -8.268246
131.220000 -8.098399
131.240000 -7.871670
131.260000 -7.708559
131.280000 -7.517245
131.300000 -7.254864
131.320000 -7.214618
131.340000 -7.280294
131.360000 -7.087132
131.380000 -6.855446
131.400000 -6.619685
131.420000 -6.329297
131.440000 -5.894815
131.460000 -5.403423
131.480000 -5.031269
131.500000 -4.641920
131.520000 -4.279471
131.540000 -3.907345
131.560000 -3.654444
131.580000 -3.226558
131.600000 -2.711150
131.620000 -2.322430
131.640000 -1.794419
131.660000 -1.136905
131.680000 -0.605352
131.700000 -0.158602
131.720000 0.340926
131.740000 0.863378
131.760000 1.377469
131.780000 1.737426
131.800000 2.304324
131.820000 2.909129
131.840000 3.427030
131.860000 3.903340
131.880000 4.437905
131.900000 4.956211
131.920000 5.308844
131.940000 5.655287
131.960000 6.058234
131.980000 6.415306
132.000000 6.726951
132.020000 7.112296
132.040000 7.484141
132.060000 7.747026
132.080000 7.993472
132.100000 8.258709
132.120000 8.403252
132.140000 8.490549
132.160000 8.582215
132.180000 8.692450
132.200000 8.754302
132.220000 8.721675
132.240000 8.747105
132.260000 8.748925
132.280000 8.577930
132.300000 8.284910
132.320000 8.144372
132.340000 7.935526
132.360000 7.619036
132.380000 7.360813
132.400000 7.206888
132.420000 7.074613
132.440000 6.782993
132.460000 6.541799
132.480000 6.240124
132.500000 5.925356
132.520000 5.491840
132.540000 5.010923
132.560000 4.625270
132.580000 4.120098
132.600000 3.642164
132.620000 3.109055
132.640000 2.466343
132.660000 1.726839
132.680000 1.028463
132.700000 0.228367
132.720000 -0.623318
132.740000 -1.424688
132.760000 -2.125627
132.780000 -2.679572
132.800000 -3.309934
132.820000 -3.841193
132.840000 -4.214915
132.860000 -4.606463
132.880000 -5.124196
132.900000 -5.598560
132.920000 -6.011379
132.940000 -6.376153
132.960000 -6.749791
132.980000 -7.071840
133.000000 -7.230386
133.020000 -7.233663
133.040000 -7.278334
133.060000 -7.354428
133.080000 -7.575401
133.100000 -7.845638
133.120000 -7.937682
133.140000 -8.098539
133.160000 -8.264871
133.180000 -8.309219
133.200000 -8.162450
133.220000 -7.974189
133.240000 -7.838440
133.260000 -7.630518
133.280000 -7.374453
133.300000 -7.178742
133.320000 -7.190056
133.340000 -7.220276
133.360000 -7.101317
133.380000 -6.862784
133.400000 -6.637105
133.420000 -6.297244
133.440000 -5.865114
133.460000 -5.421291
133.480000 -4.941956
133.500000 -4.613409
133.520000 -4.295547
133.540000 -3.953808
133.560000 -3.622727
133.580000 -3.262966
133.600000 -2.789737
133.620000 -2.338240
133.640000 -1.757492
133.660000 -1.174560
133.680000 -0.668003
133.700000 -0.140818
133.720000 0.316280
133.740000 0.828187
133.760000 1.282652
133.780000 1.750071
133.800000 2.278376
133.820000 2.880016
133.840000 3.394514
133.860000 3.948375
133.880000 4.424910
133.900000 4.889387
133.920000 5.311827
133.940000 5.611737
133.960000 5.977897
133.980000 6.353817
134.000000 6.694337
134.020000 7.108375
134.040000 7.417765
134.060000 7.735417
134.080000 8.042441
134.100000 8.171958
134.120000 8.370512
134.140000 8.450583
134.160000 8.551296
134.180000 8.632263
134.200000 8.706411
134.220000 8.737148
134.240000 8.787686
134.260000 8.740971
134.280000 8.589749
134.300000 8.395522
134.320000 8.131055
134.340000 7.916019
134.360000 7.620870
134.380000 7.407151
134.400000 7.212840
134.420000 7.014818
134.440000 6.860837
134.460000 6.551951
134.480000 6.261325
134.500000 5.913412
134.520000 5.461817
134.540000 5.033412
134.560000 4.574354
134.580000 4.140389
134.600000 3.670674
134.620000 3.114699
134.640000 2.547324
134.660000 1.837186
134.680000 1.098578
134.700000 0.293048
134.720000 -0.525322
134.740000 -1.316568
134.760000 -2.049239
134.780000 -2.655934
134.800000 -3.214305
134.820000 -3.693780
134.840000 -4.148175
134.860000 -4.591984
134.880000 -5.041380
134.900000 -5.508056
134.920000 -6.040156
134.940000 -6.387986
134.960000 -6.750701
134.980000 -7.106162
135.000000 -7.229322
135.020000 -7.427525
135.040000 -7.398132
135.060000 -7.437706
135.080000 -7.642883
135.100000 -7.826817
135.120000 -8.098987
135.140000 -8.245056
135.160000 -8.303506
135.180000 -8.392693
135.200000 -8.336862
135.220000 -8.149441
135.240000 -7.952092
135.260000 -7.706010
135.280000 -7.562546
135.300000 -7.299115
135.320000 -7.184483
135.340000 -7.223202
135.360000 -7.092971
135.380000 -6.897414
135.400000 -6.570842
135.420000 -6.285509
135.440000 -5.930552
135.460000 -5.371397
135.480000 -4.951128
135.500000 -4.616616
135.520000 -4.216918
135.540000 -3.883680
135.560000 -3.516651
135.580000 -3.202122
135.600000 -2.713628
135.620000 -2.189818
135.640000 -1.757086
135.660000 -1.140126
135.680000 -0.588730
135.700000 -0.095475
135.720000 0.391548
135.740000 0.873040
135.760000 1.402843
135.780000 1.852967
135.800000 2.328340
135.820000 2.934573
135.840000 3.485256
135.860000 3.927524
135.880000 4.425750
135.900000 4.936229
135.920000 5.353081
135.940000 5.628485
135.960000 6.016280
135.980000 6.398264
136.000000 6.716911
136.020000 7.058621
136.040000 7.388078
136.060000 7.702384
136.080000 7.954948
136.100000 8.134261
136.120000 8.309710
136.140000 8.450247
136.160000 8.497355
136.180000 8.617335
136.200000 8.666977
136.220000 8.687534
136.240000 8.664093
136.260000 8.653912
136.280000 8.534127
136.300000 8.247255
136.320000 8.069090
136.340000 7.858577
136.360000 7.635237
136.380000 7.342119
136.400000 7.152233
136.420000 7.072288
136.440000 6.808451
136.460000 6.494019
136.480000 6.267109
136.500000 5.908818
136.520000 5.509666
136.540000 5.024772
136.560000 4.596129
136.580000 4.207689
136.600000 3.656013
136.620000 3.079900
136.640000 2.478554
136.660000 1.784043
136.680000 0.985347
136.700000 0.208202
136.720000 -0.563397
136.740000 -1.356198
136.760000 -2.077441
136.780000 -2.662390
136.800000 -3.228000
136.820000 -3.714967
136.840000 -4.135222
136.860000 -4.599826
136.880000 -5.010124
136.900000 -5.514484
136.920000 -5.958908
136.940000 -6.303685
136.960000 -6.687504
136.980000 -7.025055
137.000000 -7.163492
137.020000 -7.301495
137.040000 -7.350633
137.060000 -7.400653
137.080000 -7.539818
137.100000 -7.805658
137.120000 -8.070084
137.140000 -8.165433
137.160000 -8.247185
137.180000 -8.298143
137.200000 -8.292289
137.220000 -8.119712
137.240000 -7.850693
137.260000 -7.703182
137.280000 -7.504866
137.300000 -7.273236
137.320000 -7.236702
137.340000 -7.244529
137.360000 -7.112534
137.380000 -6.874547
137.400000 -6.623970
137.420000 -6.330418
137.440000 -5.882730
137.460000 -5.392318
137.480000 -5.014297
137.500000 -4.665361
137.520000 -4.253256
137.540000 -3.939315
137.560000 -3.648269
137.580000 -3.237186
137.600000 -2.733023
137.620000 -2.303610
137.640000 -1.775907
137.660000 -1.157784
137.680000 -0.619523
137.700000 -0.118651
137.720000 0.281328
137.740000 0.883402
137.760000 1.331664
137.780000 1.742383
137.800000 2.321702
137.820000 2.868211
137.840000 3.412900
137.860000 3.925984
137.880000 4.462117
137.900000 4.912633
137.920000 5.337775
137.940000 5.641676
137.960000 6.074184
137.980000 6.377021
138.000000 6.718787
138.020000 7.137320
138.040000 7.481606
138.060000 7.745528
138.080000 7.995586
138.100000 8.284770
138.120000 8.412018
138.140000 8.475621
138.160000 8.604102
138.180000 8.708021
138.200000 8.775153
138.220000 8.776358
138.240000 8.763153
138.260000 8.810148
138.280000 8.625710
138.300000 8.336442
138.320000 8.171048
138.340000 7.906287
138.360000 7.640461
138.380000 7.400555
138.400000 7.180408
138.420000 7.026469
138.440000 6.831808
138.460000 6.572410
138.480000 6.268999
138.500000 5.895795
138.520000 5.497974
138.540000 5.055215
138.560000 4.619641
138.580000 4.096055
138.600000 3.613807
138.620000 3.147411
138.640000 2.493327
138.660000 1.753389
138.680000 1.014544
138.700000 0.282546
138.720000 -0.584487
138.740000 -1.385913
138.760000 -2.151183
138.780000 -2.699485
138.800000 -3.270542
138.820000 -3.835578
138.840000 -4.236018
138.860000 -4.652870
138.880000 -5.083306
138.900000 -5.551018
138.920000 -6.046485
138.940000 -6.397914
138.960000 -6.718787
138.980000 -7.061085
139.000000 -7.237122
139.020000 -7.261081
139.040000 -7.258113
139.060000 -7.313412
139.080000 -7.589250
139.100000 -7.863786
139.120000 -7.947975
139.140000 -8.082953
139.160000 -8.286408
139.180000 -8.341511
139.200000 -8.181411
139.220000 -7.984733
139.240000 -7.858101
139.260000 -7.620352
139.280000 -7.402866
139.300000 -7.172034
139.320000 -7.206062
139.340000 -7.238550
139.360000 -7.093545
139.380000 -6.906796
139.400000 -6.635873
139.420000 -6.302453
139.440000 -5.881932
139.460000 -5.409388
139.480000 -4.932350
139.500000 -4.598551
139.520000 -4.278785
139.540000 -3.960754
139.560000 -3.577650
139.580000 -3.239875
139.600000 -2.844070
139.620000 -2.292281
139.640000 -1.747676
139.660000 -1.152575
139.680000 -0.662541
139.700000 -0.153673
139.720000 0.397108
139.740000 0.799270
139.760000 1.277205
139.780000 1.763122
139.800000 2.288486
139.820000 2.876039
139.840000 3.393660
139.860000 3.903970
139.880000 4.440061
139.900000 4.885018
139.920000 5.283176
139.940000 5.588617
139.960000 5.958082
139.980000 6.376643
140.000000 6.701353
140.020000 7.042251
140.040000 7.427469
140.060000 7.759685
140.080000 8.029488
140.100000 8.187978
140.120000 8.328768
140.140000 8.518486
140.160000 8.569122
140.180000 8.657217
140.200000 8.694004
140.220000 8.804364
140.240000 8.821449
140.260000 8.752174
140.280000 8.628944
140.300000 8.364491
140.320000 8.206365
140.340000 7.909479
140.360000 7.624721
140.380000 7.373613
140.400000 7.249235
140.420000 7.054294
140.440000 6.829288
140.460000 6.558379
140.480000 6.264882
140.500000 5.964496
140.520000 5.465318
140.540000 5.000056
140.560000 4.596003
140.580000 4.156465
140.600000 3.663827
140.620000 3.098903
140.640000 2.532159
140.660000 1.848640
140.680000 1.121152
140.700000 0.272169
140.720000 -0.517830
140.740000 -1.292791
140.760000 -2.057683
140.780000 -2.674419
140.800000 -3.244860
140.820000 -3.728620
140.840000 -4.122381
140.860000 -4.642312
140.880000 -5.067580
140.900000 -5.521373
140.920000 -6.027077
140.940000 -6.392831
140.960000 -6.819065
140.980000 -7.111792
141.000000 -7.251405
141.020000 -7.397558
141.040000 -7.423156
141.060000 -7.422974
141.080000 -7.618503
141.100000 -7.829478
141.120000 -8.104364
141.140000 -8.202318
141.160000 -8.265109
141.180000 -8.365751
141.200000 -8.285988
141.220000 -8.156499
141.240000 -7.847640
141.260000 -7.649815
141.280000 -7.501967
141.300000 -7.245748
141.320000 -7.146954
141.340000 -7.159403
141.360000 -7.070790
141.380000 -6.899571
141.400000 -6.578095
141.420000 -6.228445
141.440000 -5.927219
141.460000 -5.372840
141.480000 -4.959614
141.500000 -4.584786
141.520000 -4.211190
141.540000 -3.895807
141.560000 -3.556589
141.580000 -3.197151
141.600000 -2.741621
141.620000 -2.228720
141.640000 -1.767211
141.660000 -1.188816
141.680000 -0.571281
141.700000 -0.130833
141.720000 0.361777
141.740000 0.835399
141.760000 1.377553
141.780000 1.811237
141.800000 2.267495
141.820000 2.856309
141.840000 3.419664
141.860000 3.935002
141.880000 4.360186
141.900000 4.881896
141.920000 5.295401
141.940000 5.615154
141.960000 5.969551
141.980000 6.349308
142.000000 6.685249
142.020000 7.060147
142.040000 7.396648
142.060000 7.709875
142.080000 7.957987
142.100000 8.161708
142.120000 8.386672
142.140000 8.466841
142.160000 8.523975
142.180000 8.601358
142.200000 8.727570
142.220000 8.702966
142.240000 8.664653
142.260000 8.666529
142.280000 8.554054
142.300000 8.313000
142.320000 8.062410
142.340000 7.867007
142.360000 7.660962
142.380000 7.404406
142.400000 7.143565
142.420000 7.054462
142.440000 6.861257
142.460000 6.565170
142.480000 6.248302
142.500000 5.920259
142.520000 5.571295
142.540000 5.091848
142.560000 4.637705
142.580000 4.148581
142.600000 3.688991
142.620000 3.155421
142.640000 2.483931
142.660000 1.757156
142.680000 1.037033
142.700000 0.237049
142.720000 -0.513811
142.740000 -1.391991
142.760000 -2.102507
142.780000 -2.607119
142.800000 -3.218492
142.820000 -3.734922
142.840000 -4.198741
142.860000 -4.589967
142.880000 -4.991766
142.900000 -5.511585
142.920000 -6.021882
142.940000 -6.332196
142.960000 -6.698594
142.980000 -7.009917
143.000000 -7.228244
143.020000 -7.380950
143.040000 -7.329978
143.060000 -7.403944
143.080000 -7.553920
143.100000 -7.892241
143.120000 -8.079242
143.140000 -8.087882
143.160000 -8.259199
143.180000 -8.336316
143.200000 -8.268092
143.220000 -8.061668
143.240000 -7.834589
143.260000 -7.706066
143.280000 -7.509151
143.300000 -7.175381
143.320000 -7.206342
143.340000 -7.239712
143.360000 -7.071798
143.380000 -6.846358
143.400000 -6.599128
143.420000 -6.327827
143.440000 -5.866472
143.460000 -5.397513
143.480000 -5.023302
143.500000 -4.641276
143.520000 -4.268072
143.540000 -3.940715
143.560000 -3.607463
143.580000 -3.234428
143.600000 -2.726091
143.620000 -2.317711
143.640000 -1.768415
143.660000 -1.120437
143.680000 -0.628597
143.700000 -0.142624
143.720000 0.355602
143.740000 0.907376
143.760000 1.329956
143.780000 1.765516
143.800000 2.283165
143.820000 2.950817
143.840000 3.375497
143.860000 3.888245
143.880000 4.469762
143.900000 4.923051
143.920000 5.316112
143.940000 5.629269
143.960000 6.041164
143.980000 6.396304
144.000000 6.724781
144.020000 7.058803
144.040000 7.456120
144.060000 7.731118
144.080000 8.011620
144.100000 8.241877
144.120000 8.347715
144.140000 8.504090
144.160000 8.600728
144.180000 8.703106
144.200000 8.695236
144.220000 8.713707
144.240000 8.783219
144.260000 8.756193
144.280000 8.527378
144.300000 8.310592
144.320000 8.174031
144.340000 7.933117
144.360000 7.599445
144.380000 7.315709
144.400000 7.251349
144.420000 7.041243
144.440000 6.784337
144.460000 6.520723
144.480000 6.238136
144.500000 5.957648
144.520000 5.493465
144.540000 4.984540
144.560000 4.622987
144.580000 4.165497
144.600000 3.656909
144.620000 3.122779
144.640000 2.433113
144.660000 1.807344
144.680000 1.064998
144.700000 0.271497
144.720000 -0.602873
144.740000 -1.359083
144.760000 -2.017423
144.780000 -2.656453
144.800000 -3.286912
144.820000 -3.766527
144.840000 -4.132617
144.860000 -4.599112
144.880000 -5.070927
144.900000 -5.606346
144.920000 -5.920427
144.940000 -6.362177
144.960000 -6.763668
144.980000 -7.037784
145.000000 -7.233397
145.020000 -7.220654
145.040000 -7.291091
145.060000 -7.355408
145.080000 -7.578146
145.100000 -7.826355
145.120000 -8.000711
145.140000 -8.118774
145.160000 -8.304066
145.180000 -8.328950
145.200000 -8.160812
145.220000 -8.065715
145.240000 -7.832251
145.260000 -7.617131
145.280000 -7.399491
145.300000 -7.203430
145.320000 -7.203724
145.340000 -7.217237
145.360000 -7.069403
145.380000 -6.929258
145.400000 -6.635705
145.420000 -6.260443
145.440000 -5.885237
145.460000 -5.402079
145.480000 -4.947683
145.500000 -4.568136
145.520000 -4.265383
145.540000 -3.924485
145.560000 -3.621327
145.580000 -3.203592
145.600000 -2.790535
145.620000 -2.287044
145.640000 -1.757773
145.660000 -1.161005
145.680000 -0.624620
145.700000 -0.170113
145.720000 0.375262
145.740000 0.783880
145.760000 1.300437
145.780000 1.736333
145.800000 2.242177
145.820000 2.833567
145.840000 3.363763
145.860000 3.879913
145.880000 4.407798
145.900000 4.829607
145.920000 5.240172
145.940000 5.621805
145.960000 5.906158
145.980000 6.340864
146.000000 6.701395
146.020000 7.060105
146.040000 7.431881
146.060000 7.768577
146.080000 8.013300
146.100000 8.227580
146.120000 8.389165
146.140000 8.479682
146.160000 8.608653
146.180000 8.667145
146.200000 8.712936
146.220000 8.795612
146.240000 8.837104
146.260000 8.747273
146.280000 8.648941
146.300000 8.417984
146.320000 8.159383
146.340000 7.958267
146.360000 7.660850
146.380000 7.395262
146.400000 7.264918
146.420000 7.041341
146.440000 6.840392
146.460000 6.590908
146.480000 6.225280
146.500000 5.941208
146.520000 5.491182
146.540000 4.982496
146.560000 4.593230
146.580000 4.123207
146.600000 3.654080
146.620000 3.133141
146.640000 2.467365
146.660000 1.828854
146.680000 1.138012
146.700000 0.242832
146.720000 -0.504191
146.740000 -1.374178
146.760000 -2.010085
146.780000 -2.637380
146.800000 -3.299907
146.820000 -3.731925
146.840000 -4.134578
146.860000 -4.597571
146.880000 -5.064401
146.900000 -5.552377
146.920000 -6.013059
146.940000 -6.342125
146.960000 -6.826221
146.980000 -7.075313
147.000000 -7.277942
147.020000 -7.389436
147.040000 -7.355226
147.060000 -7.497416
147.080000 -7.557603
147.100000 -7.837684
147.120000 -8.102292
147.140000 -8.155070
147.160000 -8.329496
147.180000 -8.327396
147.200000 -8.233069
147.220000 -8.169536
147.240000 -7.849727
147.260000 -7.666255
147.280000 -7.469045
147.300000 -7.214352
147.320000 -7.176389
147.340000 -7.124605
147.360000 -7.027743
147.380000 -6.864562
147.400000 -6.575323
147.420000 -6.224356
147.440000 -5.863924
147.460000 -5.374198
147.480000 -4.945541
147.500000 -4.567212
147.520000 -4.177540
147.540000 -3.898271
147.560000 -3.569458
147.580000 -3.196240
147.600000 -2.700647
147.620000 -2.262020
147.640000 -1.759761
147.660000 -1.142619
147.680000 -0.611121
147.700000 -0.075366
147.720000 0.319851
147.740000 0.851657
147.760000 1.354504
147.780000 1.804516
147.800000 2.277802
147.820000 2.833427
147.840000 3.407467
147.860000 3.918758
147.880000 4.359360
147.900000 4.825070
147.920000 5.292376
147.940000 5.615896
147.960000 5.977729
147.980000 6.295101
148.000000 6.700051
148.020000 7.070874
148.040000 7.400639
148.060000 7.683885
148.080000 7.934405
148.100000 8.217805
148.120000 8.336092
148.140000 8.447013
148.160000 8.540695
148.180000 8.609760
148.200000 8.747665
148.220000 8.719056
148.240000 8.675113
148.260000 8.706761
148.280000 8.580409
148.300000 8.307609
148.320000 8.128800
148.340000 7.866615
148.360000 7.678970
148.380000 7.415034
148.400000 7.180142
148.420000 7.083225
148.440000 6.853724
148.460000 6.592631
148.480000 6.239634
148.500000 5.938352
148.520000 5.549492
148.540000 5.043270
148.560000 4.643558
148.580000 4.163481
148.600000 3.661446
148.620000 3.124697
148.640000 2.444974
148.660000 1.760013
148.680000 1.006870
148.700000 0.204015
148.720000 -0.567823
148.740000 -1.394749
148.760000 -2.082539
148.780000 -2.636862
148.800000 -3.210468
148.820000 -3.710682
148.840000 -4.179039
148.860000 -4.569648
148.880000 -4.975326
148.900000 -5.538919
148.920000 -5.974004
148.940000 -6.311765
148.960000 -6.655100
148.980000 -6.966101
149.000000 -7.234559
149.020000 -7.269806
149.040000 -7.255354
149.060000 -7.376567
149.080000 -7.535379
149.100000 -7.802382
149.120000 -7.998807
149.140000 -8.103496
149.160000 -8.244706
149.180000 -8.276045
149.200000 -8.217959
149.220000 -8.066051
149.240000 -7.842165
149.260000 -7.672332
149.280000 -7.460966
149.300000 -7.248562
149.320000 -7.240328
149.340000 -7.227487
149.360000 -7.092439
149.380000 -6.895132
149.400000 -6.570547
149.420000 -6.345597
149.440000 -5.897714
149.460000 -5.366440
149.480000 -5.047149
149.500000 -4.685554
149.520000 -4.276012
149.540000 -3.975710
149.560000 -3.655579
149.580000 -3.238236
149.600000 -2.794624
149.620000 -2.315877
149.640000 -1.739722
149.660000 -1.196980
149.680000 -0.614132
149.700000 -0.106118
149.720000 0.309769
149.740000 0.869917
149.760000 1.353565
149.780000 1.741879
149.800000 2.294984
149.820000 2.906945
149.840000 3.391979
149.860000 3.900722
149.880000 4.490950
149.900000 4.893014
149.920000 5.294225
149.940000 5.702885
149.960000 6.000092
149.980000 6.367737
150.000000 6.738238
150.020000 7.092495
150.040000 7.433183
150.060000 7.761520
150.080000 7.992477
150.100000 8.201758
150.120000 8.424971
150.140000 8.471000
150.160000 8.531397
150.180000 8.709170
150.200000 8.747931
150.220000 8.720582
150.240000 8.774355
150.260000 8.739081
150.280000 8.597451
150.300000 8.375525
150.320000 8.104406
150.340000 7.940231
150.360000 7.663860
150.380000 7.365070
150.400000 7.228090
150.420000 7.041355
150.440000 6.854564
150.460000 6.560479
150.480000 6.260975
150.500000 5.951291
150.520000 5.495705
150.540000 5.053367
150.560000 4.654145
150.580000 4.167976
150.600000 3.659640
150.620000 3.187796
150.640000 2.540029
150.660000 1.806406
150.680000 1.093271
150.700000 0.296045
150.720000 -0.525378
150.740000 -1.378855
150.760000 -2.052501
150.780000 -2.682485
150.800000 -3.254396
150.820000 -3.741811
150.840000 -4.250764
150.860000 -4.569326
150.880000 -5.078363
150.900000 -5.582610
150.920000 -5.999084
150.940000 -6.382300
150.960000 -6.735605
150.980000 -7.060987
151.000000 -7.257399
151.020000 -7.307307
151.040000 -7.238928
151.060000 -7.321226
151.080000 -7.593213
151.100000 -7.861602
151.120000 -7.977704
151.140000 -8.058503
151.160000 -8.315493
151.180000 -8.348247
151.200000 -8.162198
151.220000 -8.028802
151.240000 -7.850931
151.260000 -7.660626
151.280000 -7.379606
151.300000 -7.185043
151.320000 -7.193851
151.340000 -7.195336
151.360000 -7.054196
151.380000 -6.883817
151.400000 -6.610583
151.420000 -6.258398
151.440000 -5.868685
151.460000 -5.378721
151.480000 -4.962611
151.500000 -4.559804
151.520000 -4.287663
151.540000 -3.969268
151.560000 -3.536102
151.580000 -3.242101
151.600000 -2.821202
151.620000 -2.290209
151.640000 -1.714978
151.660000 -1.150096
151.680000 -0.697396
151.700000 -0.132892
151.720000 0.359242
151.740000 0.794705
151.760000 1.231596
151.780000 1.734219
151.800000 2.282703
151.820000 2.823793
151.840000 3.347365
151.860000 3.920662
151.880000 4.395643
151.900000 4.848470
151.920000 5.278065
151.940000 5.572262
151.960000 5.967563
151.980000 6.290886
152.000000 6.698986
152.020000 7.084177
152.040000 7.377631
152.060000 7.748903
152.080000 8.007769
152.100000 8.210342
152.120000 8.308547
152.140000 8.490857
152.160000 8.598053
152.180000 8.612406
152.200000 8.750423
152.220000 8.778360
152.240000 8.808734
152.260000 8.771471
152.280000 8.625121
152.300000 8.390593
152.320000 8.181887
152.340000 7.912084
152.360000 7.592457
152.380000 7.476775
152.400000 7.183531
152.420000 7.038316
152.440000 6.890272
152.460000 6.556278
152.480000 6.300114
152.500000 5.905528
152.520000 5.502609
152.540000 5.023862
152.560000 4.596787
152.580000 4.156759
152.600000 3.663617
152.620000 3.152662
152.640000 2.499979
152.660000 1.857589
152.680000 1.092375
152.700000 0.277015
152.720000 -0.538331
152.740000 -1.320643
152.760000 -2.029130
152.780000 -2.672444
152.800000 -3.248543
152.820000 -3.724965
152.840000 -4.107075
152.860000 -4.619094
152.880000 -5.095083
152.900000 -5.501825
152.920000 -6.012849
152.940000 -6.407870
152.960000 -6.789154
152.980000 -7.078828
153.000000 -7.252189
153.020000 -7.362060
153.040000 -7.437818
153.060000 -7.409951
153.080000 -7.523379
153.100000 -7.878868
153.120000 -8.049373
153.140000 -8.134331
153.160000 -8.293984
153.180000 -8.295748
153.200000 -8.240911
153.220000 -8.104896
153.240000 -7.847893
153.260000 -7.704204
153.280000 -7.452648
153.300000 -7.237010
153.320000 -7.206902
153.340000 -7.126131
153.360000 -7.043707
153.380000 -6.841639
153.400000 -6.568895
153.420000 -6.267683
153.440000 -5.785897
153.460000 -5.436835
153.480000 -4.956533
153.500000 -4.538561
153.520000 -4.243328
153.540000 -3.844120
153.560000 -3.557037
153.580000 -3.142761
153.600000 -2.673901
153.620000 -2.277227
153.640000 -1.664692
153.660000 -1.160123
153.680000 -0.633218
153.700000 -0.062315
153.720000 0.342130
153.740000 0.850943
153.760000 1.362331
153.780000 1.771692
153.800000 2.326365
153.820000 2.864529
153.840000 3.332731
153.860000 3.938419
153.880000 4.353086
153.900000 4.798744
153.920000 5.245297
153.940000 5.575958
153.960000 5.944975
153.980000 6.252559
154.000000 6.659287
154.020000 7.020588
154.040000 7.343421
154.060000 7.654380
154.080000 7.887592
154.100000 8.170978
154.120000 8.319162
154.140000 8.383913
154.160000 8.561756
154.180000 8.667874
154.200000 8.672523
154.220000 8.727290
154.240000 8.727486
154.260000 8.668112
154.280000 8.543720
154.300000 8.263736
154.320000 8.148517
154.340000 7.909521
154.360000 7.626555
154.380000 7.433309
154.400000 7.224057
154.420000 7.087622
154.440000 6.835603
154.460000 6.579020
154.480000 6.289430
154.500000 5.923438
154.520000 5.529663
154.540000 5.121213
154.560000 4.645547
154.580000 4.174375
154.600000 3.683025
154.620000 3.186704
154.640000 2.490639
154.660000 1.711589
154.680000 1.003775
154.700000 0.277435
154.720000 -0.570945
154.740000 -1.386137
154.760000 -2.107577
154.780000 -2.601335
154.800000 -3.147187
154.820000 -3.762789
154.840000 -4.179753
154.860000 -4.559846
154.880000 -5.028931
154.900000 -5.488437
154.920000 -5.996269
154.940000 -6.358312
154.960000 -6.637007
154.980000 -6.956298
155.000000 -7.164444
155.020000 -7.335971
155.040000 -7.346740
155.060000 -7.283949
155.080000 -7.496646
155.100000 -7.863380
155.120000 -8.069286
155.140000 -8.096312
155.160000 -8.151135
155.180000 -8.332339
155.200000 -8.305985
155.220000 -8.021352
155.240000 -7.832349
155.260000 -7.701991
155.280000 -7.500007
155.300000 -7.283613
155.320000 -7.193109
155.340000 -7.235385
155.360000 -7.045528
155.380000 -6.828405
155.400000 -6.641138
155.420000 -6.289892
155.440000 -5.816956
155.460000 -5.392024
155.480000 -5.039419
155.500000 -4.646345
155.520000 -4.257149
155.540000 -3.910706
155.560000 -3.607463
155.580000 -3.196282
155.600000 -2.746452
155.620000 -2.342693
155.640000 -1.745842
155.660000 -1.128069
155.680000 -0.635893
155.700000 -0.185839
155.720000 0.321727
155.740000 0.876023
155.760000 1.321834
155.780000 1.716785
155.800000 2.289256
155.820000 2.860846
155.840000 3.314807
155.860000 3.864649
155.880000 4.409534
155.900000 4.848694
155.920000 5.263067
155.940000 5.589752
155.960000 6.000162
155.980000 6.315854
156.000000 6.665910
156.020000 7.078422
156.040000 7.414292
156.060000 7.706319
156.080000 8.001005
156.100000 8.225227
156.120000 8.381673
156.140000 8.484248
156.160000 8.630975
156.180000 8.740271
156.200000 8.713441
156.220000 8.759876
156.240000 8.810120
156.260000 8.789983
156.280000 8.573057
156.300000 8.307959
156.320000 8.220074
156.340000 7.951223
156.360000 7.622690
156.380000 7.425047
156.400000 7.234727
156.420000 7.075901
156.440000 6.858443
156.460000 6.520289
156.480000 6.292021
156.500000 5.937987
156.520000 5.455894
156.540000 5.167816
156.560000 4.578583
156.580000 4.113139
156.600000 3.749247
156.620000 3.079676
156.640000 2.550419
156.660000 1.725579
156.680000 1.074562
156.700000 0.342466
156.720000 -0.590228
156.740000 -1.423666
156.760000 -2.014356
156.780000 -2.636204
156.800000 -3.321220
156.820000 -3.760002
156.840000 -4.195507
156.860000 -4.564509
156.880000 -5.134922
156.900000 -5.531540
156.920000 -5.892098
156.940000 -6.453507
156.960000 -6.671974
156.980000 -7.038120
157.000000 -7.167133
157.020000 -7.239544
157.040000 -7.393231
157.060000 -7.184105
157.080000 -7.520438
157.100000 -7.960326
157.120000 -7.890491
157.140000 -8.034459
157.160000 -8.317257
157.180000 -8.244482
157.200000 -8.270234
157.220000 -7.964821
157.240000 -7.772274
157.260000 -7.821594
157.280000 -7.256628
157.300000 -7.266851
157.320000 -7.261236
157.340000 -7.113752
157.360000 -7.173056
157.380000 -6.808619
157.400000 -6.744889
157.420000 -6.209373
157.440000 -5.843773
157.460000 -5.537337
157.480000 -4.869461
157.500000 -4.589771
157.520000 -4.339965
157.540000 -3.868626
157.560000 -3.708315
157.580000 -3.156023
157.600000 -2.733415
157.620000 -2.584937
157.640000 -1.483293
157.660000 -1.242519
157.680000 -0.802925
157.700000 -0.016216
157.720000 0.246165
157.740000 0.889158
157.760000 1.237351
157.780000 1.588318
157.800000 2.457479
157.820000 2.759111
157.840000 3.243460
157.860000 3.983762
157.880000 4.295981
157.900000 4.901682
157.920000 5.201088
157.940000 5.501460
157.960000 6.040240
157.980000 6.213770
158.000000 6.736249
158.020000 7.016247
158.040000 7.338394
158.060000 7.826565
158.080000 7.920514
158.100000 8.287052
158.120000 8.306727
158.140000 8.392567
158.160000 8.803496
158.180000 8.546030
158.200000 8.653814
158.220000 8.899993
158.240000 8.705739
158.260000 8.865083
158.280000 8.578868
158.300000 8.263288
158.320000 8.387820
158.340000 7.868744
158.360000 7.594698
158.380000 7.478764
158.400000 7.166111
158.420000 7.147178
158.440000 6.775739
158.460000 6.554836
158.480000 6.324032
158.500000 5.904617
158.520000 5.556858
158.540000 4.969403
158.560000 4.632818
158.580000 4.191053
158.600000 3.610558
158.620000 3.157507
158.640000 2.471832
158.660000 1.819541
158.680000 1.163120
158.700000 0.233954
158.720000 -0.540586
158.740000 -1.271982
158.760000 -2.064334
158.780000 -2.636890
158.800000 -3.285792
158.820000 -3.751852
158.840000 -4.069280
158.860000 -4.654537
158.880000 -5.081584
158.900000 -5.488045
158.920000 -5.957620
158.940000 -6.372442
158.960000 -6.765502
158.980000 -7.008615
159.000000 -7.206552
159.020000 -7.337372
159.040000 -7.437664
159.060000 -7.407067
159.080000 -7.469718
159.100000 -7.864571
159.120000 -8.057229
159.140000 -8.137034
159.160000 -8.267097
159.180000 -8.320884
159.200000 -8.320926
159.220000 -8.131559
159.240000 -7.871950
159.260000 -7.735908
159.280000 -7.514192
159.300000 -7.285237
159.320000 -7.192661
159.340000 -7.171558
159.360000 -7.087244
159.380000 -6.859955
159.400000 -6.629180
159.420000 -6.284739
159.440000 -5.839908
159.460000 -5.464240
159.480000 -4.983560
159.500000 -4.606715
159.520000 -4.239869
159.540000 -3.873163
159.560000 -3.658253
159.580000 -3.151192
159.600000 -2.686392
159.620000 -2.336294
159.640000 -1.723520
159.660000 -1.159591
159.680000 -0.590116
159.700000 -0.088305
159.720000 0.327483
159.740000 0.909939
159.760000 1.372134
159.780000 1.755840
159.800000 2.311648
159.820000 2.846114
159.840000 3.382793
159.860000 3.878568
159.880000 4.353128
159.900000 4.860750
159.920000 5.219615
159.940000 5.590830
159.960000 5.942118
159.980000 6.273676
160.000000 6.665434
160.020000 6.992847
160.040000 7.368879
160.060000 7.649101
160.080000 7.891877
160.100000 8.205118
160.120000 8.317523
160.140000 8.410926
160.160000 8.545036
160.180000 8.612378
160.200000 8.690475
160.220000 8.667524
160.240000 8.661572
160.260000 8.712236
160.280000 8.493182
160.300000 8.282067
160.320000 8.107081
160.340000 7.907113
160.360000 7.658511
160.380000 7.365168
160.400000 7.230092
160.420000 7.091893
160.440000 6.841499
160.460000 6.619321
160.480000 6.303041
160.500000 5.976203
160.520000 5.612395
160.540000 5.101048
160.560000 4.674786
160.580000 4.200800
160.600000 3.693640
160.620000 3.177462
160.640000 2.497584
160.660000 1.763444
160.680000 1.032440
160.700000 0.273360
160.720000 -0.578297
160.740000 -1.420263
160.760000 -2.056618
160.780000 -2.660163
160.800000 -3.237998
160.820000 -3.758125
160.840000 -4.209552
160.860000 -4.564369
160.880000 -5.029477
160.900000 -5.533514
160.920000 -5.953265
160.940000 -6.316848
160.960000 -6.643715
160.980000 -6.963468
161.000000 -7.178252
161.020000 -7.276457
161.040000 -7.331756
161.060000 -7.317067
161.080000 -7.492739
161.100000 -7.825081
161.120000 -8.028746
161.140000 -8.101087
161.160000 -8.207555
161.180000 -8.344340
161.200000 -8.249117
161.220000 -8.057593
161.240000 -7.877790
161.260000 -7.716849
161.280000 -7.533657
161.300000 -7.265170
161.320000 -7.253184
161.340000 -7.321254
161.360000 -7.084807
161.380000 -6.870079
161.400000 -6.690332
161.420000 -6.318893
161.440000 -5.866206
161.460000 -5.410243
161.480000 -5.016748
161.500000 -4.696687
161.520000 -4.225026
161.540000 -3.980583
161.560000 -3.680239
161.580000 -3.205931
161.600000 -2.772134
161.620000 -2.316983
161.640000 -1.793817
161.660000 -1.112932
161.680000 -0.631104
161.700000 -0.158350
161.720000 0.364704
161.740000 0.868419
161.760000 1.323640
161.780000 1.740800
161.800000 2.280448
161.820000 2.906287
161.840000 3.337996
161.860000 3.891437
161.880000 4.476358
161.900000 4.875636
161.920000 5.256962
161.940000 5.646451
161.960000 6.018717
161.980000 6.343581
162.000000 6.670532
162.020000 7.074417
162.040000 7.472686
162.060000 7.685117
162.080000 7.980098
162.100000 8.241009
162.120000 8.382541
162.140000 8.481013
162.160000 8.543202
162.180000 8.707405
162.200000 8.707377
162.220000 8.715681
162.240000 8.797587
162.260000 8.717404
162.280000 8.563479
162.300000 8.302134
162.320000 8.136292
162.340000 7.902058
162.360000 7.565305
162.380000 7.335131
162.400000 7.234587
162.420000 7.023500
162.440000 6.792963
162.460000 6.553393
162.480000 6.298798
162.500000 5.929011
162.520000 5.493367
162.540000 5.056910
162.560000 4.655335
162.580000 4.182245
162.600000 3.705487
162.620000 3.190989
162.640000 2.580596
162.660000 1.867601
162.680000 1.126151
162.700000 0.370375
162.720000 -0.501054
162.740000 -1.325769
162.760000 -2.017507
162.780000 -2.611936
162.800000 -3.267503
162.820000 -3.741839
162.840000 -4.138373
162.860000 -4.579535
162.880000 -5.066698
162.900000 -5.545207
162.920000 -5.966106
162.940000 -6.358537
162.960000 -6.737748
162.980000 -7.068129
163.000000 -7.177719
163.020000 -7.319644
163.040000 -7.333101
163.060000 -7.311760
163.080000 -7.596056
163.100000 -7.876739
163.120000 -8.072100
163.140000 -8.122611
163.160000 -8.324077
163.180000 -8.425167
163.200000 -8.243180
163.220000 -8.079354
163.240000 -7.906147
163.260000 -7.750667
163.280000 -7.457507
163.300000 -7.224449
163.320000 -7.284537
163.340000 -7.249977
163.360000 -7.083057
163.380000 -6.931652
163.400000 -6.662494
163.420000 -6.256004
163.440000 -5.843885
163.460000 -5.373064
163.480000 -4.959824
163.500000 -4.545003
163.520000 -4.201696
163.540000 -3.974631
163.560000 -3.568282
163.580000 -3.131125
163.600000 -2.737252
163.620000 -2.291049
163.640000 -1.674411
163.660000 -1.067869
163.680000 -0.618571
163.700000 -0.135889
163.720000 0.401841
163.740000 0.864960
163.760000 1.289654
163.780000 1.753291
163.800000 2.293919
163.820000 2.878686
163.840000 3.349731
163.860000 3.893454
163.880000 4.411144
163.900000 4.777010
163.920000 5.229963
163.940000 5.556816
163.960000 5.875294
163.980000 6.260961
164.000000 6.608020
164.020000 7.047614
164.040000 7.341223
164.060000 7.643135
164.080000 7.963294
164.100000 8.149763
164.120000 8.258541
164.140000 8.385006
164.160000 8.556267
164.180000 8.616677
164.200000 8.656587
164.220000 8.744878
164.240000 8.807221
164.260000 8.731463
164.280000 8.561952
164.300000 8.356789
164.320000 8.164369
164.340000 7.905894
164.360000 7.588914
164.380000 7.418619
164.400000 7.250579
164.420000 7.024313
164.440000 6.845097
164.460000 6.604282
164.480000 6.290060
164.500000 5.915050
164.520000 5.523222
164.540000 5.046995
164.560000 4.620873
164.580000 4.181489
164.600000 3.684496
164.620000 3.230535
164.640000 2.559017
164.660000 1.885329
164.680000 1.207678
164.700000 0.344973
164.720000 -0.475064
164.740000 -1.266100
164.760000 -1.978074
164.780000 -2.580218
164.800000 -3.199069
164.820000 -3.677410
164.840000 -4.069924
164.860000 -4.571917
164.880000 -5.030275
164.900000 -5.502623
164.920000 -5.976707
164.940000 -6.364348
164.960000 -6.761245
164.980000 -7.028528
165.000000 -7.251041
165.020000 -7.385781
165.040000 -7.393679
165.060000 -7.407165
165.080000 -7.559269
165.100000 -7.871992
165.120000 -8.068362
165.140000 -8.152886
165.160000 -8.301672
165.180000 -8.397917
165.200000 -8.279434
165.220000 -8.124263
165.240000 -7.932529
165.260000 -7.748147
165.280000 -7.536850
165.300000 -7.278824
165.320000 -7.221508
165.340000 -7.214296
165.360000 -7.074893
165.380000 -6.879308
165.400000 -6.608413
165.420000 -6.276771
165.440000 -5.853071
165.460000 -5.458022
165.480000 -4.981053
165.500000 -4.586102
165.520000 -4.263605
165.540000 -3.897389
165.560000 -3.596429
165.580000 -3.145072
165.600000 -2.733163
165.620000 -2.304576
165.640000 -1.729808
165.660000 -1.162573
165.680000 -0.635725
165.700000 -0.135300
165.720000 0.337999
165.740000 0.862201
165.760000 1.363284
165.780000 1.751695
165.800000 2.314966
165.820000 2.858731
165.840000 3.382835
165.860000 3.901842
165.880000 4.349207
165.900000 4.841804
165.920000 5.267464
165.940000 5.585537
165.960000 5.943953
165.980000 6.324382
166.000000 6.671232
166.020000 7.045976
166.040000 7.367479
166.060000 7.672052
166.080000 7.985420
166.100000 8.164201
166.120000 8.367081
166.140000 8.467710
166.160000 8.584736
166.180000 8.688641
166.200000 8.670226
166.220000 8.771401
166.240000 8.725497
166.260000 8.675197
166.280000 8.543440
166.300000 8.294628
166.320000 8.109405
166.340000 7.887732
166.360000 7.620058
166.380000 7.406590
166.400000 7.227459
166.420000 7.012144
166.440000 6.872670
166.460000 6.585657
166.480000 6.252461
166.500000 5.983708
166.520000 5.555822
166.540000 5.097449
166.560000 4.648908
166.580000 4.189009
166.600000 3.716493
166.620000 3.133225
166.640000 2.446542
166.660000 1.765460
166.680000 1.053235
166.700000 0.199506
166.720000 -0.628233
166.740000 -1.356492
166.760000 -2.054098
166.780000 -2.693379
166.800000 -3.245070
166.820000 -3.760226
166.840000 -4.159154
166.860000 -4.580627
166.880000 -5.126562
166.900000 -5.483872
166.920000 -5.943561
166.940000 -6.383014
166.960000 -6.629488
166.980000 -6.997846
167.000000 -7.152457
167.020000 -7.283165
167.040000 -7.380824
167.060000 -7.334417
167.080000 -7.535954
167.100000 -7.834883
167.120000 -8.061528
167.140000 -8.099743
167.160000 -8.253136
167.180000 -8.322523
167.200000 -8.220130
167.220000 -8.102418
167.240000 -7.889062
167.260000 -7.708503
167.280000 -7.504740
167.300000 -7.273530
167.320000 -7.250481
167.340000 -7.291147
167.360000 -7.024299
167.380000 -6.852169
167.400000 -6.673416
167.420000 -6.243275
167.440000 -5.852441
167.460000 -5.379393
167.480000 -4.975466
167.500000 -4.672643
167.520000 -4.209370
167.540000 -3.931683
167.560000 -3.635946
167.580000 -3.198957
167.600000 -2.765721
167.620000 -2.296160
167.640000 -1.784939
167.660000 -1.133278
167.680000 -0.659853
167.700000 -0.168853
167.720000 0.374086
167.740000 0.821619
167.760000 1.319663
167.780000 1.736641
167.800000 2.302517
167.820000 2.877972
167.840000 3.341399
167.860000 3.889071
167.880000 4.452636
167.900000 4.871897
167.920000 5.219979
167.940000 5.631384
167.960000 5.998762
167.980000 6.343007
168.000000 6.646768
168.020000 7.070132
168.040000 7.443853
168.060000 7.694024
168.080000 8.008875
168.100000 8.205861
168.120000 8.390509
168.140000 8.497859
168.160000 8.588573
168.180000 8.703764
168.200000 8.731729
168.220000 8.779719
168.240000 8.809812
168.260000 8.737806
168.280000 8.570788
168.300000 8.379572
168.320000 8.173583
168.340000 7.883727
168.360000 7.585637
168.380000 7.401199
168.400000 7.234517
168.420000 6.956284
168.440000 6.775403
168.460000 6.580616
168.480000 6.270441
168.500000 5.873026
168.520000 5.459898
168.540000 5.093570
168.560000 4.641458
168.580000 4.124131
168.600000 3.638509
168.620000 3.166287
168.640000 2.536108
168.660000 1.752829
168.680000 1.076593
168.700000 0.271217
168.720000 -0.552741
168.740000 -1.355428
168.760000 -2.063634
168.780000 -2.672963
168.800000 -3.283145
168.820000 -3.730161
168.840000 -4.142672
168.860000 -4.621853
168.880000 -5.092114
168.900000 -5.474378
168.920000 -5.938800
168.940000 -6.394805
168.960000 -6.726993
168.980000 -6.962418
169.000000 -7.139238
169.020000 -7.337904
169.040000 -7.237780
169.060000 -7.250761
169.080000 -7.548613
169.100000 -7.856533
169.120000 -7.989523
169.140000 -8.022262
169.160000 -8.310186
169.180000 -8.410520
169.200000 -8.163248
169.220000 -8.014603
169.240000 -7.909801
169.260000 -7.683633
169.280000 -7.419992
169.300000 -7.226129
169.320000 -7.253716
169.340000 -7.256334
169.360000 -7.070860
169.380000 -6.919245
169.400000 -6.699673
169.420000 -6.209905
169.440000 -5.911731
169.460000 -5.404921
169.480000 -4.955147
169.500000 -4.536390
169.520000 -4.295841
169.540000 -3.997737
169.560000 -3.577048
169.580000 -3.230297
169.600000 -2.870648
169.620000 -2.349667
169.640000 -1.744665
169.660000 -1.161985
169.680000 -0.738033
169.700000 -0.152525
169.720000 0.368260
169.740000 0.785981
169.760000 1.201545
169.780000 1.730060
169.800000 2.258771
169.820000 2.808893
169.840000 3.334538
169.860000 3.887923
169.880000 4.367104
169.900000 4.806445
169.920000 5.249834
169.940000 5.581952
169.960000 5.868601
169.980000 6.282848
170.000000 6.715146
170.020000 7.033499
170.040000 7.322416
170.060000 7.748189
170.080000 8.054400
170.100000 8.197094
170.120000 8.303114
170.140000 8.475944
170.160000 8.663785
170.180000 8.619310
170.200000 8.692380
170.220000 8.828100
170.240000 8.828240
170.260000 8.734656
170.280000 8.623259
170.300000 8.423627
170.320000 8.197739
170.340000 7.855804
170.360000 7.677360
170.380000 7.429738
170.400000 7.197926
170.420000 7.022940
170.440000 6.887850
170.460000 6.614350
170.480000 6.255234
170.500000 5.866360
170.520000 5.601374
170.540000 5.046981
170.560000 4.529767
170.580000 4.172233
170.600000 3.728382
170.620000 3.188356
170.640000 2.490891
170.660000 1.866579
170.680000 1.213182
170.700000 0.332468
170.720000 -0.555850
170.740000 -1.249030
170.760000 -1.975525
170.780000 -2.646076
170.800000 -3.251820
170.820000 -3.665703
170.840000 -4.104989
170.860000 -4.597403
170.880000 -5.062077
170.900000 -5.508966
170.920000 -5.975740
170.940000 -6.432544
170.960000 -6.785877
170.980000 -7.021232
171.000000 -7.311802
171.020000 -7.441165
171.040000 -7.416407
171.060000 -7.457507
171.080000 -7.614778
171.100000 -7.885478
171.120000 -8.073627
171.140000 -8.225577
171.160000 -8.326556
171.180000 -8.394332
171.200000 -8.261580
171.220000 -8.168009
171.240000 -7.933257
171.260000 -7.722254
171.280000 -7.485107
171.300000 -7.310443
171.320000 -7.216089
171.340000 -7.163604
171.360000 -7.046760
171.380000 -6.888998
171.400000 -6.576681
171.420000 -6.234859
171.440000 -5.839964
171.460000 -5.367322
171.480000 -4.940304
171.500000 -4.549722
171.520000 -4.203965
171.540000 -3.860504
171.560000 -3.531803
171.580000 -3.162100
171.600000 -2.721470
171.620000 -2.233565
171.640000 -1.731124
171.660000 -1.167223
171.680000 -0.626553
171.700000 -0.113287
171.720000 0.366370
171.740000 0.820849
171.760000 1.298378
171.780000 1.790820
171.800000 2.242485
171.820000 2.807227
171.840000 3.349815
171.860000 3.850618
171.880000 4.324716
171.900000 4.822661
171.920000 5.232610
171.940000 5.542532
171.960000 5.924880
171.980000 6.299204
172.000000 6.649078
172.020000 6.982723
172.040000 7.337652
172.060000 7.687036
172.080000 7.948577
172.100000 8.141683
172.120000 8.322551
172.140000 8.494176
172.160000 8.562218
172.180000 8.588531
172.200000 8.709352
172.220000 8.737162
172.240000 8.704058
172.260000 8.669022
172.280000 8.533343
172.300000 8.315689
172.320000 8.113060
172.340000 7.864823
172.360000 7.655080
172.380000 7.386986
172.400000 7.179190
172.420000 7.057725
172.440000 6.833013
172.460000 6.555550
172.480000 6.258062
172.500000 5.924264
172.520000 5.552699
172.540000 5.072327
172.560000 4.619669
172.580000 4.185200
172.600000 3.689481
172.620000 3.107725
172.640000 2.497304
172.660000 1.786143
172.680000 1.003705
172.700000 0.255673
172.720000 -0.570511
172.740000 -1.333583
172.760000 -2.070524
172.780000 -2.638108
172.800000 -3.190415
172.820000 -3.709786
172.840000 -4.148805
172.860000 -4.594490
172.880000 -4.988825
172.900000 -5.514708
172.920000 -5.964874
172.940000 -6.345569
172.960000 -6.639248
172.980000 -6.991125
173.000000 -7.194734
173.020000 -7.300711
173.040000 -7.406394
173.060000 -7.328816
173.080000 -7.590987
173.100000 -7.845792
173.120000 -8.082113
173.140000 -8.158361
173.160000 -8.216153
173.180000 -8.367459
173.200000 -8.277936
173.220000 -8.125131
173.240000 -7.857359
173.260000 -7.747796
173.280000 -7.561118
173.300000 -7.282647
173.320000 -7.267019
173.340000 -7.271290
173.360000 -7.175465
173.380000 -6.849326
173.400000 -6.678121
173.420000 -6.329732
173.440000 -5.887001
173.460000 -5.422159
173.480000 -4.950036
173.500000 -4.681269
173.520000 -4.220503
173.540000 -3.945182
173.560000 -3.593180
173.580000 -3.217553
173.600000 -2.759671
173.620000 -2.241281
173.640000 -1.806112
173.660000 -1.097276
173.680000 -0.641466
173.700000 -0.104353
173.720000 0.354019
173.740000 0.833746
173.760000 1.357234
173.780000 1.697012
173.800000 2.281036
173.820000 2.824577
173.840000 3.355403
173.860000 3.822625
173.880000 4.389943
173.900000 4.850332
173.920000 5.212627
173.940000 5.592608
173.960000 5.908762
173.980000 6.349322
174.000000 6.618075
174.020000 7.022618
174.040000 7.412682
174.060000 7.695508
174.080000 7.999801
174.100000 8.151051
174.120000 8.408783
174.140000 8.461268
174.160000 8.570998
174.180000 8.712320
174.200000 8.724937
174.220000 8.789045
174.240000 8.768040
174.260000 8.803188
174.280000 8.605223
174.300000 8.342099
174.320000 8.169326
174.340000 7.935288
174.360000 7.668705
174.380000 7.348659
174.400000 7.210417
174.420000 7.062710
174.440000 6.833951
174.460000 6.514576
174.480000 6.274572
174.500000 5.973500
174.520000 5.492400
174.540000 5.044503
174.560000 4.599252
174.580000 4.206793
174.600000 3.626312
174.620000 3.120496
174.640000 2.565193
174.660000 1.783021
174.680000 1.090078
174.700000 0.269509
174.720000 -0.529691
174.740000 -1.311569
174.760000 -2.105434
174.780000 -2.648905
174.800000 -3.224849
174.820000 -3.785292
174.840000 -4.193658
174.860000 -4.607850
174.880000 -5.062903
174.900000 -5.554841
174.920000 -6.015664
174.940000 -6.353425
174.960000 -6.762758
174.980000 -7.051955
175.000000 -7.221788
175.020000 -7.329880
175.040000 -7.313538
175.060000 -7.350633
175.080000 -7.541821
175.100000 -7.868800
175.120000 -8.079256
175.140000 -8.070546
175.160000 -8.269702
175.180000 -8.377444
175.200000 -8.220564
175.220000 -8.034781
175.240000 -7.822014
175.260000 -7.703616
175.280000 -7.453348
175.300000 -7.171600
175.320000 -7.216313
175.340000 -7.246938
175.360000 -7.054868
175.380000 -6.925057
175.400000 -6.644149
175.420000 -6.291516
175.440000 -5.842568
175.460000 -5.392850
175.480000 -4.991010
175.500000 -4.506787
175.520000 -4.228470
175.540000 -3.961328
175.560000 -3.603360
175.580000 -3.193034
175.600000 -2.744002
175.620000 -2.344150
175.640000 -1.766217
175.660000 -1.106266
175.680000 -0.676223
175.700000 -0.184256
175.720000 0.332874
175.740000 0.808890
175.760000 1.253777
175.780000 1.670714
175.800000 2.239320
175.820000 2.802340
175.840000 3.293886
175.860000 3.840955
175.880000 4.335498
175.900000 4.787821
175.920000 5.197265
175.940000 5.506544
175.960000 5.896299
175.980000 6.232926
176.000000 6.628605
176.020000 7.060665
176.040000 7.362690
176.060000 7.698239
176.080000 8.005949
176.100000 8.221376
176.120000 8.340671
176.140000 8.436986
176.160000 8.597801
176.180000 8.681429
176.200000 8.692310
176.220000 8.751740
176.240000 8.798385
176.260000 8.780657
176.280000 8.602226
176.300000 8.358259
176.320000 8.193846
176.340000 7.930316
176.360000 7.645306
176.380000 7.401843
176.400000 7.206356
176.420000 7.082104
176.440000 6.848374
176.460000 6.592281
176.480000 6.282652
176.500000 5.924824
176.520000 5.538723
176.540000 5.057582
176.560000 4.583134
176.580000 4.149856
176.600000 3.698163
176.620000 3.174661
176.640000 2.527566
176.660000 1.853654
176.680000 1.186421
176.700000 0.355265
176.720000 -0.479111
176.740000 -1.316653
176.760000 -1.979628
176.780000 -2.591477
176.800000 -3.227090
176.820000 -3.711452
176.840000 -4.141075
176.860000 -4.557199
176.880000 -5.056882
176.900000 -5.561829
176.920000 -5.993063
176.940000 -6.418933
176.960000 -6.777545
176.980000 -7.108417
177.000000 -7.309393
177.020000 -7.433225
177.040000 -7.492179
177.060000 -7.441655
177.080000 -7.595608
177.100000 -7.870396
177.120000 -8.096158
177.140000 -8.190205
177.160000 -8.293298
177.180000 -8.351958
177.200000 -8.300033
177.220000 -8.105316
177.240000 -7.901918
177.260000 -7.766155
177.280000 -7.494125
177.300000 -7.267873
177.320000 -7.225765
177.340000 -7.190364
177.360000 -7.086319
177.380000 -6.877851
177.400000 -6.634347
177.420000 -6.306276
177.440000 -5.869777
177.460000 -5.397626
177.480000 -4.981053
177.500000 -4.587825
177.520000 -4.181601
177.540000 -3.859244
177.560000 -3.531439
177.580000 -3.119936
177.600000 -2.667739
177.620000 -2.233915
177.640000 -1.709363
177.660000 -1.125521
177.680000 -0.589920
177.700000 -0.080883
177.720000 0.370529
177.740000 0.876471
177.760000 1.350625
177.780000 1.772196
177.800000 2.312124
177.820000 2.836004
177.840000 3.339159
177.860000 3.880865
177.880000 4.345833
177.900000 4.812817
177.920000 5.216898
177.940000 5.569699
177.960000 5.948476
177.980000 6.299890
178.000000 6.619433
178.020000 7.017339
178.040000 7.375307
178.060000 7.639214
178.080000 7.916677
178.100000 8.151710
178.120000 8.325141
178.140000 8.417213
178.160000 8.517772
178.180000 8.598319
178.200000 8.666823
178.220000 8.694886
178.240000 8.663169
178.260000 8.643536
178.280000 8.499427
178.300000 8.266761
178.320000 8.100331
178.340000 7.846142
178.360000 7.587766
178.380000 7.395948
178.400000 7.199565
178.420000 7.021988
178.440000 6.834539
178.460000 6.528327
178.480000 6.314944
178.500000 5.921898
178.520000 5.492064
178.540000 5.123888
178.560000 4.644693
178.580000 4.182693
178.600000 3.707909
178.620000 3.126490
178.640000 2.519696
178.660000 1.799867
178.680000 1.046542
178.700000 0.309152
178.720000 -0.549212
178.740000 -1.301445
178.760000 -2.008909
178.780000 -2.629090
178.800000 -3.163122
178.820000 -3.707489
178.840000 -4.127240
178.860000 -4.544947
178.880000 -5.049124
178.900000 -5.461551
178.920000 -5.948392
178.940000 -6.343147
178.960000 -6.667885
178.980000 -6.998252
179.000000 -7.187970
179.020000 -7.352705
179.040000 -7.409615
179.060000 -7.351389
179.080000 -7.553920
179.100000 -7.876095
179.120000 -8.063796
179.140000 -8.157045
179.160000 -8.249495
179.180000 -8.338598
179.200000 -8.296868
179.220000 -8.078038
179.240000 -7.912294
179.260000 -7.749267
179.280000 -7.541639
179.300000 -7.317067
179.320000 -7.239922
179.340000 -7.319798
179.360000 -7.098446
179.380000 -6.915884
179.400000 -6.700219
179.420000 -6.323850
179.440000 -5.910233
179.460000 -5.421277
179.480000 -5.036955
179.500000 -4.596535
179.520000 -4.242894
179.540000 -3.923295
179.560000 -3.575045
179.580000 -3.214179
179.600000 -2.689388
179.620000 -2.289200
179.640000 -1.777867
179.660000 -1.109809
179.680000 -0.614118
179.700000 -0.156376
179.720000 0.375542
179.740000 0.854079
179.760000 1.298336
179.780000 1.758641
179.800000 2.247764
179.820000 2.854642
179.840000 3.345698
179.860000 3.842272
179.880000 4.405767
179.900000 4.831203
179.920000 5.222359
179.940000 5.593449
179.960000 5.982784
179.980000 6.326679