90 Deg Fixed Reg 9 13-Apr-2018
Time(s) LoadCell(N)
0.000000 -0.331628
0.020000 -0.317568
0.040000 -0.324710
0.060000 -0.314334
0.080000 -0.332762
0.100000 -0.345043
0.120000 -0.301590
0.140000 -0.353851
0.160000 -0.340296
0.180000 -0.285837
0.200000 -0.350364
0.220000 -0.300568
0.240000 -0.295793
0.260000 -0.299756
0.280000 -0.233688
0.300000 -0.302501
0.320000 -0.240760
0.340000 -0.176540
0.360000 -0.265490
0.380000 -0.194465
0.400000 -0.163335
0.420000 -0.176736
0.440000 -0.151418
0.460000 -0.173040
0.480000 -0.095587
0.500000 -0.088669
0.520000 -0.140188
0.540000 -0.089762
0.560000 -0.057946
0.580000 -0.078181
0.600000 -0.082970
0.620000 -0.075422
0.640000 -0.041422
0.660000 -0.045161
0.680000 -0.082312
0.700000 -0.047822
0.720000 -0.071221
0.740000 -0.068855
0.760000 -0.044559
0.780000 -0.084986
0.800000 -0.097856
0.820000 -0.080015
0.840000 -0.071249
0.860000 -0.100124
0.880000 -0.189536
0.900000 -0.133620
0.920000 -0.123650
0.940000 -0.187071
0.960000 -0.280109
0.980000 -0.236461
1.000000 -0.195949
1.020000 -0.325802
1.040000 -0.369185
1.060000 -0.335213
1.080000 -0.301619
1.100000 -0.391828
1.120000 -0.449494
1.140000 -0.386409
1.160000 -0.369367
1.180000 -0.409766
1.200000 -0.462153
1.220000 -0.427355
1.240000 -0.369227
1.260000 -0.407386
1.280000 -0.412287
1.300000 -0.401560
1.320000 -0.364494
1.340000 -0.349230
1.360000 -0.353837
1.380000 -0.373848
1.400000 -0.322414
1.420000 -0.287979
1.440000 -0.292488
1.460000 -0.294477
1.480000 -0.304097
1.500000 -0.204099
1.520000 -0.229417
1.540000 -0.277995
1.560000 -0.238841
1.580000 -0.175042
1.600000 -0.155563
1.620000 -0.225944
1.640000 -0.184760
1.660000 -0.115836
1.680000 -0.130441
1.700000 -0.170127
1.720000 -0.161655
1.740000 -0.093178
1.760000 -0.094509
1.780000 -0.144753
1.800000 -0.143507
1.820000 -0.087129
1.840000 -0.112433
1.860000 -0.102841
1.880000 -0.144207
1.900000 -0.134936
1.920000 -0.108456
1.940000 -0.167914
1.960000 -0.145845
1.980000 -0.228479
2.000000 -0.153701
2.020000 -0.150704
2.040000 -0.279731
2.060000 -0.217514
2.080000 -0.240788
2.100000 -0.244359
2.120000 -0.264327
2.140000 -0.344427
2.160000 -0.276216
2.180000 -0.253041
2.200000 -0.363163
2.220000 -0.348096
2.240000 -0.325382
2.260000 -0.341346
2.280000 -0.344777
2.300000 -0.416460
2.320000 -0.368821
2.340000 -0.360629
2.360000 -0.404207
2.380000 -0.392458
2.400000 -0.462111
2.420000 -0.379631
2.440000 -0.396925
2.460000 -0.426108
2.480000 -0.441330
2.500000 -0.426669
2.520000 -0.370305
2.540000 -0.423574
2.560000 -0.468483
2.580000 -0.380233
2.600000 -0.365922
2.620000 -0.392906
2.640000 -0.425282
2.660000 -0.385933
2.680000 -0.291228
2.700000 -0.340100
2.720000 -0.398550
2.740000 -0.276216
2.760000 -0.268178
2.780000 -0.270713
2.800000 -0.281342
2.820000 -0.231294
2.840000 -0.194143
2.860000 -0.191832
2.880000 -0.176988
2.900000 -0.171149
2.920000 -0.129363
2.940000 -0.110865
2.960000 -0.105950
2.980000 -0.073252
3.000000 -0.100544
3.020000 -0.068294
3.040000 0.013681
3.060000 -0.064766
3.080000 -0.078377
3.100000 0.044503
3.120000 -0.000182
3.140000 0.006708
3.160000 -0.010965
3.180000 0.006456
3.200000 0.105529
3.220000 0.028091
3.240000 -0.019647
3.260000 0.081051
3.280000 0.052275
3.300000 0.043761
3.320000 0.017308
3.340000 0.003571
3.360000 0.051210
3.380000 0.018807
3.400000 0.000980
3.420000 -0.029687
3.440000 0.022223
3.460000 0.023498
3.480000 -0.024142
3.500000 -0.031200
3.520000 0.001610
3.540000 0.024660
3.560000 0.030919
3.580000 -0.009676
3.600000 0.035457
3.620000 0.118861
3.640000 0.057400
3.660000 0.092492
3.680000 0.126156
3.700000 0.129769
3.720000 0.213887
3.740000 0.149486
3.760000 0.199212
3.780000 0.286957
3.800000 0.271077
3.820000 0.299280
3.840000 0.323380
3.860000 0.355546
3.880000 0.390428
3.900000 0.449102
3.920000 0.422552
3.940000 0.450670
3.960000 0.550822
3.980000 0.539704
4.000000 0.540194
4.020000 0.590844
4.040000 0.589766
4.060000 0.674626
4.080000 0.669683
4.100000 0.615252
4.120000 0.716090
4.140000 0.714522
4.160000 0.704089
4.180000 0.744363
4.200000 0.712925
4.220000 0.734939
4.240000 0.763520
4.260000 0.724044
4.280000 0.713626
4.300000 0.688938
4.320000 0.717280
4.340000 0.706456
4.360000 0.628149
4.380000 0.614608
4.400000 0.615448
4.420000 0.604455
4.440000 0.494067
4.460000 0.449452
4.480000 0.501153
4.500000 0.398438
4.520000 0.317694
4.540000 0.259202
4.560000 0.217458
4.580000 0.194941
4.600000 0.057470
4.620000 -0.003515
4.640000 -0.012211
4.660000 -0.125036
4.680000 -0.186609
4.700000 -0.266582
4.720000 -0.381326
4.740000 -0.381788
4.760000 -0.499836
4.780000 -0.606164
4.800000 -0.667498
4.820000 -0.755622
4.840000 -0.794999
4.860000 -0.898316
4.880000 -1.010987
4.900000 -1.052801
4.920000 -1.089490
4.940000 -1.179490
4.960000 -1.365048
4.980000 -1.326875
5.000000 -1.355008
5.020000 -1.494537
5.040000 -1.563224
5.060000 -1.647412
5.080000 -1.636615
5.100000 -1.715454
5.120000 -1.890482
5.140000 -1.898828
5.160000 -1.879952
5.180000 -2.013992
5.200000 -2.100645
5.220000 -2.160817
5.240000 -2.189958
5.260000 -2.249361
5.280000 -2.341601
5.300000 -2.382855
5.320000 -2.472770
5.340000 -2.472000
5.360000 -2.524457
5.380000 -2.608967
5.400000 -2.631148
5.420000 -2.691069
5.440000 -2.655500
5.460000 -2.725867
5.480000 -2.823961
5.500000 -2.756871
5.520000 -2.741985
5.540000 -2.816525
5.560000 -2.840947
5.580000 -2.813948
5.600000 -2.760176
5.620000 -2.774879
5.640000 -2.852360
5.660000 -2.713432
5.680000 -2.701823
5.700000 -2.740389
5.720000 -2.674545
5.740000 -2.653232
5.760000 -2.562952
5.780000 -2.544972
5.800000 -2.494518
5.820000 -2.409517
5.840000 -2.326449
5.860000 -2.246742
5.880000 -2.158815
5.900000 -2.050303
5.920000 -1.984221
5.940000 -1.830548
5.960000 -1.667157
5.980000 -1.630776
6.000000 -1.422952
6.020000 -1.259057
6.040000 -1.132788
6.060000 -0.959147
6.080000 -0.818931
6.100000 -0.576183
6.120000 -0.396183
6.140000 -0.277813
6.160000 -0.036409
6.180000 0.219937
6.200000 0.352647
6.220000 0.575902
6.240000 0.789188
6.260000 1.027553
6.280000 1.255472
6.300000 1.423932
6.320000 1.682644
6.340000 1.907441
6.360000 2.150231
6.380000 2.367465
6.400000 2.575163
6.420000 2.865481
6.440000 3.042357
6.460000 3.350025
6.480000 3.539295
6.500000 3.734936
6.520000 4.078060
6.540000 4.261336
6.560000 4.449584
6.580000 4.702400
6.600000 4.975368
6.620000 5.199548
6.640000 5.385919
6.660000 5.553973
6.680000 5.823104
6.700000 6.035549
6.720000 6.146119
6.740000 6.321232
6.760000 6.498570
6.780000 6.627527
6.800000 6.649568
6.820000 6.721952
6.840000 6.782825
6.860000 6.764662
6.880000 6.771930
6.900000 6.661233
6.920000 6.694841
6.940000 6.652593
6.960000 6.575505
6.980000 6.553925
7.000000 6.435373
7.020000 6.414032
7.040000 6.281686
7.060000 6.124008
7.080000 6.013942
7.100000 5.818875
7.120000 5.678127
7.140000 5.526358
7.160000 5.255911
7.180000 5.121633
7.200000 4.901430
7.220000 4.556751
7.240000 4.182918
7.260000 3.672173
7.280000 3.190723
7.300000 2.580330
7.320000 1.892191
7.340000 1.332546
7.360000 0.704691
7.380000 0.194815
7.400000 -0.277169
7.420000 -0.783460
7.440000 -1.160011
7.460000 -1.569553
7.480000 -1.946048
7.500000 -2.332415
7.520000 -2.746886
7.540000 -3.108019
7.560000 -3.413377
7.580000 -3.709716
7.600000 -4.024091
7.620000 -4.248691
7.640000 -4.411242
7.660000 -4.673778
7.680000 -4.968492
7.700000 -5.224880
7.720000 -5.519189
7.740000 -5.842204
7.760000 -6.263286
7.780000 -6.618733
7.800000 -6.908239
7.820000 -7.335005
7.840000 -7.716821
7.860000 -8.143840
7.880000 -8.470188
7.900000 -8.661824
7.920000 -8.938531
7.940000 -9.163565
7.960000 -9.369778
7.980000 -9.517178
8.000000 -9.627594
8.020000 -9.766102
8.040000 -9.682404
8.060000 -9.626880
8.080000 -9.591004
8.100000 -9.505681
8.120000 -9.330989
8.140000 -9.013449
8.160000 -8.708217
8.180000 -8.521230
8.200000 -8.229904
8.220000 -8.076666
8.240000 -7.755246
8.260000 -7.331854
8.280000 -7.127013
8.300000 -6.695458
8.320000 -6.183102
8.340000 -5.676545
8.360000 -5.105165
8.380000 -4.657730
8.400000 -4.062629
8.420000 -3.534996
8.440000 -3.201310
8.460000 -2.746340
8.480000 -2.282213
8.500000 -1.881562
8.520000 -1.428525
8.540000 -0.895347
8.560000 -0.401701
8.580000 0.117796
8.600000 0.617675
8.620000 1.080136
8.640000 1.462189
8.660000 1.832298
8.680000 2.221732
8.700000 2.589390
8.720000 2.917111
8.740000 3.318588
8.760000 3.849245
8.780000 4.175510
8.800000 4.467522
8.820000 4.915056
8.840000 5.195557
8.860000 5.481534
8.880000 5.688027
8.900000 6.014054
8.920000 6.424184
8.940000 6.652005
8.960000 6.946650
8.980000 7.324279
9.000000 7.623265
9.020000 7.796766
9.040000 7.980098
9.060000 8.223547
9.080000 8.410436
9.100000 8.588237
9.120000 8.840087
9.140000 9.062755
9.160000 9.312967
9.180000 9.550338
9.200000 9.696673
9.220000 9.865624
9.240000 9.987747
9.260000 10.058800
9.280000 10.122400
9.300000 10.033830
9.320000 9.988965
9.340000 9.997787
9.360000 9.839031
9.380000 9.678567
9.400000 9.556597
9.420000 9.432345
9.440000 9.296233
9.460000 9.091293
9.480000 8.937018
9.500000 8.890975
9.520000 8.782155
9.540000 8.578756
9.560000 8.448973
9.580000 8.297919
9.600000 7.986288
9.620000 7.626387
9.640000 7.149755
9.660000 6.564302
9.680000 6.042102
9.700000 5.422467
9.720000 4.720311
9.740000 4.059702
9.760000 3.427590
9.780000 2.786852
9.800000 2.182929
9.820000 1.529924
9.840000 0.920651
9.860000 0.483550
9.880000 -0.048480
9.900000 -0.615574
9.920000 -1.078665
9.940000 -1.525877
9.960000 -1.927535
9.980000 -2.414824
10.000000 -2.895140
10.020000 -3.225241
10.040000 -3.596457
10.060000 -3.942466
10.080000 -4.317546
10.100000 -4.566400
10.120000 -4.821107
10.140000 -5.132122
10.160000 -5.411181
10.180000 -5.784216
10.200000 -6.079954
10.220000 -6.374934
10.240000 -6.803115
10.260000 -7.163912
10.280000 -7.493635
10.300000 -7.887914
10.320000 -8.175291
10.340000 -8.592283
10.360000 -9.052518
10.380000 -9.352932
10.400000 -9.928079
10.420000 -10.353770
10.440000 -10.484350
10.460000 -10.657210
10.480000 -10.777140
10.500000 -10.936170
10.520000 -10.991300
10.540000 -11.025310
10.560000 -11.091510
10.580000 -10.974020
10.600000 -10.775650
10.620000 -10.639770
10.640000 -10.408580
10.660000 -9.971867
10.680000 -9.458616
10.700000 -8.952814
10.720000 -8.505547
10.740000 -8.077702
10.760000 -7.848607
10.780000 -7.499027
10.800000 -6.941035
10.820000 -6.550117
10.840000 -6.095763
10.860000 -5.563425
10.880000 -4.735966
10.900000 -3.962743
10.920000 -3.433849
10.940000 -2.698379
10.960000 -2.093223
10.980000 -1.698734
11.000000 -1.320531
11.020000 -0.865128
11.040000 -0.414892
11.060000 0.014648
11.080000 0.583408
11.100000 1.134161
11.120000 1.612460
11.140000 2.078618
11.160000 2.491241
11.180000 2.850021
11.200000 3.055955
11.220000 3.341707
11.240000 3.752832
11.260000 4.003128
11.280000 4.249770
11.300000 4.743696
11.320000 5.087731
11.340000 5.260435
11.360000 5.447393
11.380000 5.639926
11.400000 5.810571
11.420000 5.845481
11.440000 5.988988
11.460000 6.320083
11.480000 6.529770
11.500000 6.725565
11.520000 6.961760
11.540000 7.145134
11.560000 7.196498
11.580000 7.244193
11.600000 7.361346
11.620000 7.354988
11.640000 7.466315
11.660000 7.693519
11.680000 7.872833
11.700000 8.035076
11.720000 8.134779
11.740000 8.301784
11.760000 8.430545
11.780000 8.319414
11.800000 8.349675
11.820000 8.544826
11.840000 8.575353
11.860000 8.578504
11.880000 8.610012
11.900000 8.659164
11.920000 8.586990
11.940000 8.350963
11.960000 8.123829
11.980000 7.973027
12.000000 7.744338
12.020000 7.534987
12.040000 7.455490
12.060000 7.402726
12.080000 7.337526
12.100000 7.247820
12.120000 7.113220
12.140000 6.898114
12.160000 6.664762
12.180000 6.380928
12.200000 6.052927
12.220000 5.770801
12.240000 5.385863
12.260000 5.069975
12.280000 4.699026
12.300000 4.164965
12.320000 3.619520
12.340000 3.024069
12.360000 2.339556
12.380000 1.622094
12.400000 1.056666
12.420000 0.541454
12.440000 0.083628
12.460000 -0.262297
12.480000 -0.607900
12.500000 -0.827319
12.520000 -1.204430
12.540000 -1.649541
12.560000 -1.977121
12.580000 -2.314462
12.600000 -2.710492
12.620000 -3.017865
12.640000 -3.154258
12.660000 -3.307371
12.680000 -3.446663
12.700000 -3.606581
12.720000 -3.853040
12.740000 -4.035910
12.760000 -4.407952
12.780000 -4.811277
12.800000 -5.103023
12.820000 -5.475456
12.840000 -5.782522
12.860000 -6.002333
12.880000 -6.330012
12.900000 -6.662031
12.920000 -6.958343
12.940000 -7.431853
12.960000 -7.848649
12.980000 -8.342715
13.000000 -8.890177
13.020000 -9.259334
13.040000 -9.610216
13.060000 -9.753205
13.080000 -9.828403
13.100000 -9.974094
13.120000 -10.061950
13.140000 -10.145480
13.160000 -10.311840
13.180000 -10.620220
13.200000 -10.646490
13.220000 -10.396130
13.240000 -10.258540
13.260000 -10.119320
13.280000 -9.683972
13.300000 -9.134214
13.320000 -8.692211
13.340000 -8.468452
13.360000 -8.275037
13.380000 -7.935792
13.400000 -7.746564
13.420000 -7.384563
13.440000 -6.908631
13.460000 -6.501161
13.480000 -5.856544
13.500000 -5.119855
13.520000 -4.440425
13.540000 -3.922777
13.560000 -3.437602
13.580000 -2.915361
13.600000 -2.506505
13.620000 -2.213512
13.640000 -1.758277
13.660000 -1.147898
13.680000 -0.640108
13.700000 -0.118300
13.720000 0.466354
13.740000 0.991760
13.760000 1.389050
13.780000 1.747102
13.800000 2.133035
13.820000 2.457801
13.840000 2.825347
13.860000 3.253080
13.880000 3.647359
13.900000 4.074952
13.920000 4.469748
13.940000 4.856269
13.960000 5.088361
13.980000 5.250058
14.000000 5.499430
14.020000 5.782284
14.040000 5.977029
14.060000 6.240908
14.080000 6.651739
14.100000 7.010113
14.120000 7.252091
14.140000 7.462450
14.160000 7.662768
14.180000 7.824325
14.200000 7.871138
14.220000 7.997056
14.240000 8.217988
14.260000 8.425181
14.280000 8.653478
14.300000 8.931515
14.320000 9.120182
14.340000 9.244644
14.360000 9.379315
14.380000 9.406593
14.400000 9.459932
14.420000 9.522975
14.440000 9.638195
14.460000 9.743136
14.480000 9.765850
14.500000 9.735896
14.520000 9.679799
14.540000 9.496411
14.560000 9.127058
14.580000 8.837875
14.600000 8.592564
14.620000 8.328362
14.640000 8.131741
14.660000 7.995348
14.680000 7.942653
14.700000 7.817631
14.720000 7.614610
14.740000 7.397096
14.760000 7.157331
14.780000 6.859087
14.800000 6.464822
14.820000 6.203841
14.840000 5.869511
14.860000 5.531890
14.880000 5.139291
14.900000 4.701098
14.920000 4.192916
14.940000 3.588223
14.960000 2.930358
14.980000 2.240329
15.000000 1.652495
15.020000 1.107652
15.040000 0.667316
15.060000 0.304489
15.080000 -0.075226
15.100000 -0.311323
15.120000 -0.630333
15.140000 -1.099278
15.160000 -1.530428
15.180000 -1.921990
15.200000 -2.310878
15.220000 -2.707453
15.240000 -3.015891
15.260000 -3.256343
15.280000 -3.367754
15.300000 -3.629266
15.320000 -3.948081
15.340000 -4.197761
15.360000 -4.617792
15.380000 -4.999594
15.400000 -5.499696
15.420000 -5.924180
15.440000 -6.244493
15.460000 -6.644303
15.480000 -6.971506
15.500000 -7.380656
15.520000 -7.799875
15.540000 -8.237410
15.560000 -8.731295
15.580000 -9.384888
15.600000 -9.915069
15.620000 -10.103500
15.640000 -10.204740
15.660000 -10.383500
15.680000 -10.533880
15.700000 -10.422120
15.720000 -10.473190
15.740000 -10.669840
15.760000 -10.662120
15.780000 -10.451790
15.800000 -10.221800
15.820000 -10.203130
15.840000 -9.764533
15.860000 -9.137463
15.880000 -8.561042
15.900000 -8.116043
15.920000 -7.727688
15.940000 -7.391831
15.960000 -7.246098
15.980000 -6.808423
16.000000 -6.447500
16.020000 -6.139902
16.040000 -5.693727
16.060000 -4.987663
16.080000 -4.274135
16.100000 -3.910930
16.120000 -3.405073
16.140000 -2.961824
16.160000 -2.680510
16.180000 -2.699583
16.200000 -2.470978
16.220000 -2.119662
16.240000 -1.980958
16.260000 -1.603413
16.280000 -1.213532
16.300000 -0.826493
16.320000 -0.634913
16.340000 -0.423252
16.360000 -0.219783
16.380000 -0.128761
16.400000 -0.025136
16.420000 0.253587
16.440000 0.626665
16.460000 0.841742
16.480000 1.299750
16.500000 1.762842
16.520000 2.057795
16.540000 2.229000
16.560000 2.557099
16.580000 2.915543
16.600000 3.093918
16.620000 3.510882
16.640000 4.039803
16.660000 4.671285
16.680000 5.155507
16.700000 5.611723
16.720000 6.247686
16.740000 6.579454
16.760000 6.846680
16.780000 7.248983
16.800000 7.648401
16.820000 7.979216
16.840000 8.483911
16.860000 8.967602
16.880000 9.356965
16.900000 9.776450
16.920000 9.967834
16.940000 10.257070
16.960000 10.349370
16.980000 10.309490
17.000000 10.553540
17.020000 10.558640
17.040000 10.499510
17.060000 10.541200
17.080000 10.489560
17.100000 10.273120
17.120000 9.868298
17.140000 9.490025
17.160000 9.199035
17.180000 8.832469
17.200000 8.391475
17.220000 8.239189
17.240000 8.102110
17.260000 7.961572
17.280000 7.778716
17.300000 7.572544
17.320000 7.382001
17.340000 6.967291
17.360000 6.624516
17.380000 6.233809
17.400000 5.772076
17.420000 5.425562
17.440000 5.027152
17.460000 4.706293
17.480000 4.243804
17.500000 3.655187
17.520000 3.197235
17.540000 2.672458
17.560000 1.996264
17.580000 1.522348
17.600000 1.192205
17.620000 0.856250
17.640000 0.634899
17.660000 0.344161
17.680000 0.176736
17.700000 -0.068995
17.720000 -0.507790
17.740000 -0.831716
17.760000 -1.181226
17.780000 -1.511327
17.800000 -1.833111
17.820000 -1.988884
17.840000 -2.117239
17.860000 -2.324293
17.880000 -2.501393
17.900000 -2.729970
17.920000 -3.027570
17.940000 -3.417185
17.960000 -3.872785
17.980000 -4.206541
18.000000 -4.547999
18.020000 -4.910925
18.040000 -5.178501
18.060000 -5.393663
18.080000 -5.762217
18.100000 -6.049748
18.120000 -6.449712
18.140000 -6.915856
18.160000 -7.311312
18.180000 -7.858577
18.200000 -8.327214
18.220000 -8.579933
18.240000 -8.660788
18.260000 -8.780405
18.280000 -8.967840
18.300000 -9.072151
18.320000 -9.192762
18.340000 -9.398093
18.360000 -9.631753
18.380000 -9.533716
18.400000 -9.236102
18.420000 -9.152796
18.440000 -8.940547
18.460000 -8.408433
18.480000 -7.890491
18.500000 -7.598002
18.520000 -7.487852
18.540000 -7.400275
18.560000 -7.159739
18.580000 -6.930910
18.600000 -6.689058
18.620000 -6.303881
18.640000 -5.925244
18.660000 -5.273822
18.680000 -4.639483
18.700000 -4.209118
18.720000 -3.821813
18.740000 -3.482245
18.760000 -3.209403
18.780000 -3.034964
18.800000 -2.843454
18.820000 -2.510117
18.840000 -2.081530
18.860000 -1.684367
18.880000 -1.292371
18.900000 -0.833873
18.920000 -0.476787
18.940000 -0.201789
18.960000 0.053927
18.980000 0.295975
19.000000 0.581308
19.020000 0.970363
19.040000 1.325447
19.060000 1.741585
19.080000 2.227025
19.100000 2.639410
19.120000 3.009954
19.140000 3.226264
19.160000 3.534366
19.180000 3.864145
19.200000 4.138233
19.220000 4.524264
19.240000 4.949350
19.260000 5.466158
19.280000 5.907138
19.300000 6.230378
19.320000 6.571430
19.340000 6.858611
19.360000 7.046774
19.380000 7.262664
19.400000 7.469438
19.420000 7.802998
19.440000 8.127204
19.460000 8.397455
19.480000 8.700277
19.500000 8.843588
19.520000 8.986128
19.540000 9.093422
19.560000 8.998171
19.580000 9.053190
19.600000 9.150584
19.620000 9.287004
19.640000 9.371697
19.660000 9.358716
19.680000 9.375716
19.700000 9.276614
19.720000 8.965711
19.740000 8.568212
19.760000 8.293984
19.780000 8.040663
19.800000 7.764755
19.820000 7.588536
19.840000 7.513604
19.860000 7.496632
19.880000 7.416589
19.900000 7.227095
19.920000 7.033513
19.940000 6.830086
19.960000 6.571486
19.980000 6.259309
20.000000 6.008774
20.020000 5.778013
20.040000 5.530531
20.060000 5.193652
20.080000 4.779321
20.100000 4.301750
20.120000 3.685602
20.140000 3.003246
20.160000 2.232305
20.180000 1.645774
20.200000 1.131584
20.220000 0.639674
20.240000 0.248294
20.260000 -0.042724
20.280000 -0.304363
20.300000 -0.673828
20.320000 -1.137465
20.340000 -1.505096
20.360000 -1.857533
20.380000 -2.220668
20.400000 -2.522916
20.420000 -2.711976
20.440000 -2.796878
20.460000 -2.918638
20.480000 -3.121028
20.500000 -3.305915
20.520000 -3.576950
20.540000 -3.957883
20.560000 -4.338495
20.580000 -4.703507
20.600000 -5.055131
20.620000 -5.322231
20.640000 -5.544003
20.660000 -5.791652
20.680000 -6.020747
20.700000 -6.327645
20.720000 -6.680642
20.740000 -7.060091
20.760000 -7.533279
20.780000 -7.902226
20.800000 -8.227958
20.820000 -8.597913
20.840000 -8.802516
20.860000 -8.790249
20.880000 -8.797741
20.900000 -8.873275
20.920000 -8.976032
20.940000 -8.983846
20.960000 -9.024217
20.980000 -9.218794
21.000000 -9.361684
21.020000 -9.222687
21.040000 -8.807067
21.060000 -8.504748
21.080000 -8.301686
21.100000 -7.875969
21.120000 -7.393847
21.140000 -7.062822
21.160000 -7.029634
21.180000 -6.996180
21.200000 -6.645157
21.220000 -6.378841
21.240000 -6.187205
21.260000 -5.798948
21.280000 -5.312877
21.300000 -4.784026
21.320000 -4.241886
21.340000 -3.825790
21.360000 -3.447923
21.380000 -3.090725
21.400000 -2.803670
21.420000 -2.506421
21.440000 -2.194019
21.460000 -1.898240
21.480000 -1.362864
21.500000 -0.869707
21.520000 -0.548624
21.540000 -0.074694
21.560000 0.411475
21.580000 0.704649
21.600000 0.999490
21.620000 1.335865
21.640000 1.735661
21.660000 2.152597
21.680000 2.435479
21.700000 2.881837
21.720000 3.341021
21.740000 3.680323
21.760000 3.975430
21.780000 4.232615
21.800000 4.541754
21.820000 4.834424
21.840000 5.121339
21.860000 5.483228
21.880000 5.839068
21.900000 6.294765
21.920000 6.663026
21.940000 6.920240
21.960000 7.196848
21.980000 7.464060
22.000000 7.691559
22.020000 7.867567
22.040000 8.012474
22.060000 8.383997
22.080000 8.697631
22.100000 8.835228
22.120000 9.067362
22.140000 9.243468
22.160000 9.406439
22.180000 9.427920
22.200000 9.370899
22.220000 9.510904
22.240000 9.639399
22.260000 9.622791
22.280000 9.570503
22.300000 9.524334
22.320000 9.456823
22.340000 9.172933
22.360000 8.816939
22.380000 8.459125
22.400000 8.193342
22.420000 7.961838
22.440000 7.666689
22.460000 7.496114
22.480000 7.412640
22.500000 7.343995
22.520000 7.174121
22.540000 6.892891
22.560000 6.679452
22.580000 6.477089
22.600000 6.163512
22.620000 5.811159
22.640000 5.501222
22.660000 5.278037
22.680000 4.946381
22.700000 4.458672
22.720000 3.983412
22.740000 3.439045
22.760000 2.818836
22.780000 2.145960
22.800000 1.427279
22.820000 0.934319
22.840000 0.514092
22.860000 0.021495
22.880000 -0.305147
22.900000 -0.589640
22.920000 -0.915554
22.940000 -1.250837
22.960000 -1.717135
22.980000 -2.068157
23.000000 -2.360141
23.020000 -2.700241
23.040000 -2.917167
23.060000 -3.114097
23.080000 -3.207387
23.100000 -3.344480
23.120000 -3.566657
23.140000 -3.831349
23.160000 -4.133836
23.180000 -4.494296
23.200000 -4.909832
23.220000 -5.254483
23.240000 -5.595045
23.260000 -5.836449
23.280000 -6.076537
23.300000 -6.371266
23.320000 -6.656528
23.340000 -6.999751
23.360000 -7.416659
23.380000 -7.851099
23.400000 -8.258569
23.420000 -8.688753
23.440000 -9.038557
23.460000 -9.188323
23.480000 -9.215979
23.500000 -9.251898
23.520000 -9.264235
23.540000 -9.254769
23.560000 -9.289805
23.580000 -9.305279
23.600000 -9.503763
23.620000 -9.623813
23.640000 -9.387283
23.660000 -9.034048
23.680000 -8.733017
23.700000 -8.474613
23.720000 -8.020414
23.740000 -7.437034
23.760000 -7.219491
23.780000 -7.152625
23.800000 -6.966045
23.820000 -6.719025
23.840000 -6.487522
23.860000 -6.255724
23.880000 -5.843171
23.900000 -5.286089
23.920000 -4.831862
23.940000 -4.285086
23.960000 -3.791818
23.980000 -3.517324
24.000000 -3.189169
24.020000 -2.885828
24.040000 -2.596042
24.060000 -2.344668
24.080000 -1.994289
24.100000 -1.375943
24.120000 -0.999672
24.140000 -0.608628
24.160000 -0.106412
24.180000 0.275474
24.200000 0.568845
24.220000 0.815766
24.240000 1.209653
24.260000 1.605738
24.280000 1.955122
24.300000 2.410455
24.320000 2.868828
24.340000 3.303422
24.360000 3.679539
24.380000 4.001084
24.400000 4.314353
24.420000 4.600442
24.440000 4.910770
24.460000 5.339834
24.480000 5.698264
24.500000 6.103577
24.520000 6.650801
24.540000 7.019467
24.560000 7.299745
24.580000 7.544916
24.600000 7.843117
24.620000 8.057971
24.640000 8.161120
24.660000 8.420014
24.680000 8.750087
24.700000 9.016838
24.720000 9.194848
24.740000 9.378166
24.760000 9.571595
24.780000 9.606309
24.800000 9.585808
24.820000 9.605357
24.840000 9.626726
24.860000 9.661735
24.880000 9.636290
24.900000 9.584240
24.920000 9.506871
24.940000 9.289315
24.960000 9.054997
24.980000 8.747875
25.000000 8.351047
25.020000 8.103608
25.040000 7.898431
25.060000 7.708377
25.080000 7.536780
25.100000 7.444904
25.120000 7.428506
25.140000 7.231800
25.160000 6.966437
25.180000 6.730172
25.200000 6.518357
25.220000 6.191532
25.240000 5.829209
25.260000 5.561703
25.280000 5.282812
25.300000 4.871239
25.320000 4.407630
25.340000 3.913521
25.360000 3.315591
25.380000 2.641469
25.400000 1.949577
25.420000 1.378659
25.440000 0.871962
25.460000 0.389756
25.480000 0.051560
25.500000 -0.230047
25.520000 -0.517354
25.540000 -0.919209
25.560000 -1.246076
25.580000 -1.602461
25.600000 -2.041467
25.620000 -2.373697
25.640000 -2.665037
25.660000 -2.865047
25.680000 -3.034782
25.700000 -3.230100
25.720000 -3.359212
25.740000 -3.586472
25.760000 -3.939035
25.780000 -4.250274
25.800000 -4.623659
25.820000 -5.062301
25.840000 -5.395091
25.860000 -5.713710
25.880000 -5.992362
25.900000 -6.236805
25.920000 -6.590474
25.940000 -6.865556
25.960000 -7.229490
25.980000 -7.695760
26.000000 -8.092447
26.020000 -8.514425
26.040000 -8.940869
26.060000 -9.184416
26.080000 -9.228218
26.100000 -9.232111
26.120000 -9.237643
26.140000 -9.313359
26.160000 -9.287481
26.180000 -9.292130
26.200000 -9.532848
26.220000 -9.689097
26.240000 -9.554133
26.260000 -9.221707
26.280000 -9.043402
26.300000 -8.811436
26.320000 -8.276816
26.340000 -7.783001
26.360000 -7.498004
26.380000 -7.381818
26.400000 -7.248030
26.420000 -7.022968
26.440000 -6.831430
26.460000 -6.588108
26.480000 -6.198310
26.500000 -5.784973
26.520000 -5.201354
26.540000 -4.608214
26.560000 -4.201430
26.580000 -3.769188
26.600000 -3.482007
26.620000 -3.148419
26.640000 -2.873967
26.660000 -2.697076
26.680000 -2.234461
26.700000 -1.723856
26.720000 -1.312255
26.740000 -0.858869
26.760000 -0.348180
26.780000 0.084314
26.800000 0.363793
26.820000 0.666210
26.840000 1.031586
26.860000 1.395491
26.880000 1.835253
26.900000 2.263602
26.920000 2.731665
26.940000 3.263470
26.960000 3.680043
26.980000 4.045699
27.000000 4.372985
27.020000 4.630927
27.040000 5.050622
27.060000 5.363387
27.080000 5.735835
27.100000 6.237379
27.120000 6.710133
27.140000 7.185239
27.160000 7.458039
27.180000 7.734367
27.200000 8.066051
27.220000 8.202668
27.240000 8.325855
27.260000 8.553858
27.280000 8.840255
27.300000 9.100536
27.320000 9.293418
27.340000 9.493974
27.360000 9.662561
27.380000 9.709066
27.400000 9.704977
27.420000 9.666300
27.440000 9.669450
27.460000 9.695861
27.480000 9.646457
27.500000 9.664017
27.520000 9.567282
27.540000 9.390531
27.560000 9.223261
27.580000 8.843560
27.600000 8.477120
27.620000 8.205749
27.640000 7.940735
27.660000 7.722688
27.680000 7.545224
27.700000 7.463430
27.720000 7.408481
27.740000 7.255312
27.760000 6.974797
27.780000 6.772616
27.800000 6.565366
27.820000 6.180414
27.840000 5.884200
27.860000 5.640360
27.880000 5.345141
27.900000 5.022027
27.920000 4.603957
27.940000 4.139843
27.960000 3.631395
27.980000 2.955200
28.000000 2.230974
28.020000 1.686075
28.040000 1.124862
28.060000 0.628485
28.080000 0.258516
28.100000 -0.063323
28.120000 -0.309250
28.140000 -0.637909
28.160000 -1.022988
28.180000 -1.427559
28.200000 -1.819681
28.220000 -2.176697
28.240000 -2.521838
28.260000 -2.790325
28.280000 -3.000907
28.300000 -3.127120
28.320000 -3.267125
28.340000 -3.552794
28.360000 -3.846403
28.380000 -4.155317
28.400000 -4.531643
28.420000 -4.962471
28.440000 -5.393635
28.460000 -5.721859
28.480000 -5.949694
28.500000 -6.279445
28.520000 -6.622136
28.540000 -6.906740
28.560000 -7.249893
28.580000 -7.700577
28.600000 -8.180486
28.620000 -8.638649
28.640000 -9.057293
28.660000 -9.398555
28.680000 -9.505807
28.700000 -9.511352
28.720000 -9.545437
28.740000 -9.563767
28.760000 -9.546529
28.780000 -9.543378
28.800000 -9.757560
28.820000 -9.934716
28.840000 -9.816234
28.860000 -9.519418
28.880000 -9.317728
28.900000 -9.067362
28.920000 -8.550385
28.940000 -7.985182
28.960000 -7.628586
28.980000 -7.462744
29.000000 -7.274861
29.020000 -7.080214
29.040000 -6.862196
29.060000 -6.563322
29.080000 -6.249912
29.100000 -5.800068
29.120000 -5.211829
29.140000 -4.616280
29.160000 -4.091518
29.180000 -3.703036
29.200000 -3.308253
29.220000 -2.988935
29.240000 -2.747600
29.260000 -2.502051
29.280000 -2.125137
29.300000 -1.619335
29.320000 -1.163428
29.340000 -0.720235
29.360000 -0.231896
29.380000 0.178753
29.400000 0.502469
29.420000 0.773980
29.440000 1.073540
29.460000 1.404986
29.480000 1.801603
29.500000 2.223328
29.520000 2.643682
29.540000 3.102908
29.560000 3.582187
29.580000 3.876734
29.600000 4.125952
29.620000 4.433354
29.640000 4.702400
29.660000 5.025626
29.680000 5.343124
29.700000 5.748480
29.720000 6.295423
29.740000 6.676413
29.760000 7.013292
29.780000 7.341517
29.800000 7.565655
29.820000 7.778296
29.840000 7.930862
29.860000 8.126223
29.880000 8.445052
29.900000 8.699185
29.920000 9.011166
29.940000 9.254349
29.960000 9.413819
29.980000 9.554553
30.000000 9.608508
30.020000 9.599616
30.040000 9.599616
30.060000 9.669885
30.080000 9.775848
30.100000 9.801768
30.120000 9.792918
30.140000 9.791672
30.160000 9.621699
30.180000 9.344194
30.200000 8.980639
30.220000 8.634336
30.240000 8.436846
30.260000 8.126055
30.280000 7.926521
30.300000 7.881543
30.320000 7.778030
30.340000 7.665485
30.360000 7.471720
30.380000 7.205614
30.400000 6.980636
30.420000 6.675139
30.440000 6.294023
30.460000 6.014292
30.480000 5.743803
30.500000 5.433082
30.520000 5.045861
30.540000 4.581957
30.560000 4.055655
30.580000 3.475650
30.600000 2.741369
30.620000 1.956578
30.640000 1.406232
30.660000 0.888122
30.680000 0.412903
30.700000 0.010208
30.720000 -0.322203
30.740000 -0.559883
30.760000 -0.927317
30.780000 -1.472132
30.800000 -1.876479
30.820000 -2.252722
30.840000 -2.683969
30.860000 -3.035902
30.880000 -3.327746
30.900000 -3.480873
30.920000 -3.608794
30.940000 -3.884856
30.960000 -4.145403
30.980000 -4.483738
31.000000 -4.865414
31.020000 -5.286887
31.040000 -5.738916
31.060000 -6.138894
31.080000 -6.463926
31.100000 -6.680502
31.120000 -6.964448
31.140000 -7.316997
31.160000 -7.647868
31.180000 -7.986792
31.200000 -8.409806
31.220000 -8.932999
31.240000 -9.411760
31.260000 -9.646149
31.280000 -9.622469
31.300000 -9.644062
31.320000 -9.660642
31.340000 -9.547957
31.360000 -9.395699
31.380000 -9.333930
31.400000 -9.466248
31.420000 -9.634274
31.440000 -9.533786
31.460000 -9.212591
31.480000 -8.966369
31.500000 -8.671192
31.520000 -8.174269
31.540000 -7.596574
31.560000 -7.060749
31.580000 -6.920786
31.600000 -6.785877
31.620000 -6.552455
31.640000 -6.374066
31.660000 -6.178439
31.680000 -5.920357
31.700000 -5.483774
31.720000 -4.950694
31.740000 -4.401230
31.760000 -3.934638
31.780000 -3.551758
31.800000 -3.227412
31.820000 -3.032177
31.840000 -2.839323
31.860000 -2.631219
31.880000 -2.384787
31.900000 -1.987764
31.920000 -1.512350
31.940000 -1.131248
31.960000 -0.692481
31.980000 -0.244275
32.000000 -0.001694
32.020000 0.285459
32.040000 0.537085
32.060000 0.862635
32.080000 1.255402
32.100000 1.672226
32.120000 2.138986
32.140000 2.636036
32.160000 3.108047
32.180000 3.446817
32.200000 3.791523
32.220000 4.081449
32.240000 4.334504
32.260000 4.738291
32.280000 5.109674
32.300000 5.585817
32.320000 6.092206
32.340000 6.574118
32.360000 7.002103
32.380000 7.276345
32.400000 7.560137
32.420000 7.786950
32.440000 7.946406
32.460000 8.144526
32.480000 8.445458
32.500000 8.774943
32.520000 9.052168
32.540000 9.308822
32.560000 9.525636
32.580000 9.639567
32.600000 9.662729
32.620000 9.650112
32.640000 9.623127
32.660000 9.696967
32.680000 9.740770
32.700000 9.785230
32.720000 9.841552
32.740000 9.755571
32.760000 9.618562
32.780000 9.352638
32.800000 8.932117
32.820000 8.615669
32.840000 8.295874
32.860000 8.010724
32.880000 7.833497
32.900000 7.727702
32.920000 7.681813
32.940000 7.570122
32.960000 7.372996
32.980000 7.152989
33.000000 6.908729
33.020000 6.634697
33.040000 6.250823
33.060000 5.984283
33.080000 5.802183
33.100000 5.456412
33.120000 5.142064
33.140000 4.705691
33.160000 4.197047
33.180000 3.664471
33.200000 2.865551
33.220000 2.135569
33.240000 1.558057
33.260000 0.971021
33.280000 0.528193
33.300000 0.125498
33.320000 -0.225132
33.340000 -0.437619
33.360000 -0.813694
33.380000 -1.267081
33.400000 -1.681958
33.420000 -2.072624
33.440000 -2.406843
33.460000 -2.752768
33.480000 -3.021618
33.500000 -3.129654
33.520000 -3.264787
33.540000 -3.423151
33.560000 -3.721647
33.580000 -4.061662
33.600000 -4.364065
33.620000 -4.850738
33.640000 -5.281510
33.660000 -5.677721
33.680000 -6.019249
33.700000 -6.265946
33.720000 -6.552637
33.740000 -6.853009
33.760000 -7.205096
33.780000 -7.614764
33.800000 -8.046320
33.820000 -8.552934
33.840000 -9.043178
33.860000 -9.457706
33.880000 -9.559706
33.900000 -9.599112
33.920000 -9.676928
33.940000 -9.647591
33.960000 -9.581761
33.980000 -9.596241
34.000000 -9.667084
34.020000 -9.881909
34.040000 -9.965089
34.060000 -9.711096
34.080000 -9.439417
34.100000 -9.116850
34.120000 -8.792868
34.140000 -8.277194
34.160000 -7.654086
34.180000 -7.386916
34.200000 -7.266515
34.220000 -7.112786
34.240000 -6.829624
34.260000 -6.550621
34.280000 -6.356114
34.300000 -5.874440
34.320000 -5.305567
34.340000 -4.720101
34.360000 -4.164979
34.380000 -3.726772
34.400000 -3.313953
34.420000 -3.042973
34.440000 -2.827630
34.460000 -2.502416
34.480000 -2.263854
34.500000 -1.941063
34.520000 -1.334283
34.540000 -0.922388
34.560000 -0.543653
34.580000 -0.073602
34.600000 0.247061
34.620000 0.534760
34.640000 0.726005
34.660000 1.008312
34.680000 1.411343
34.700000 1.777069
34.720000 2.147206
34.740000 2.606012
34.760000 3.098721
34.780000 3.363090
34.800000 3.703344
34.820000 3.981619
34.840000 4.180089
34.860000 4.513985
34.880000 4.851074
34.900000 5.254749
34.920000 5.701429
34.940000 6.179139
34.960000 6.617851
34.980000 6.930098
35.000000 7.160901
35.020000 7.436880
35.040000 7.680440
35.060000 7.814691
35.080000 8.109629
35.100000 8.498167
35.120000 8.818970
35.140000 9.109792
35.160000 9.340189
35.180000 9.581831
35.200000 9.700202
35.220000 9.692990
35.240000 9.721529
35.260000 9.887259
35.280000 9.971195
35.300000 9.982160
35.320000 10.122280
35.340000 10.106150
35.360000 9.978071
35.380000 9.728237
35.400000 9.351910
35.420000 9.004921
35.440000 8.695824
35.460000 8.386938
35.480000 8.174507
35.500000 8.037960
35.520000 7.938662
35.540000 7.844000
35.560000 7.676477
35.580000 7.390669
35.600000 7.104356
35.620000 6.803437
35.640000 6.408571
35.660000 6.001395
35.680000 5.670887
35.700000 5.312121
35.720000 4.924760
35.740000 4.429671
35.760000 3.846011
35.780000 3.264899
35.800000 2.526193
35.820000 1.793187
35.840000 1.145321
35.860000 0.609987
35.880000 0.173306
35.900000 -0.219195
35.920000 -0.470331
35.940000 -0.694035
35.960000 -1.021406
35.980000 -1.369039
36.000000 -1.757030
36.020000 -2.090212
36.040000 -2.441725
36.060000 -2.771574
36.080000 -2.891387
36.100000 -3.036546
36.120000 -3.173835
36.140000 -3.263372
36.160000 -3.490633
36.180000 -3.746825
36.200000 -4.087359
36.220000 -4.561274
36.240000 -4.886461
36.260000 -5.262171
36.280000 -5.644673
36.300000 -5.863756
36.320000 -6.094475
36.340000 -6.398488
36.360000 -6.706940
36.380000 -7.089120
36.400000 -7.516027
36.420000 -7.964303
36.440000 -8.428416
36.460000 -8.843000
36.480000 -9.131861
36.500000 -9.245709
36.520000 -9.280941
36.540000 -9.269640
36.560000 -9.392226
36.580000 -9.434096
36.600000 -9.399704
36.620000 -9.612569
36.640000 -9.862585
36.660000 -9.885592
36.680000 -9.561372
36.700000 -9.205351
36.720000 -9.097609
36.740000 -8.719630
36.760000 -8.145296
36.780000 -7.736552
36.800000 -7.566705
36.820000 -7.468135
36.840000 -7.224743
36.860000 -6.945418
36.880000 -6.684241
36.900000 -6.325573
36.920000 -5.811705
36.940000 -5.277309
36.960000 -4.691156
36.980000 -4.147825
37.000000 -3.755003
37.020000 -3.383129
37.040000 -3.045788
37.060000 -2.705520
37.080000 -2.450211
37.100000 -2.098853
37.120000 -1.563630
37.140000 -1.079155
37.160000 -0.687593
37.180000 -0.258628
37.200000 0.225034
37.220000 0.514316
37.240000 0.751967
37.260000 1.097598
37.280000 1.413934
37.300000 1.796142
37.320000 2.139938
37.340000 2.552856
37.360000 2.979174
37.380000 3.343164
37.400000 3.667818
37.420000 3.917750
37.440000 4.172597
37.460000 4.427766
37.480000 4.783340
37.500000 5.113441
37.520000 5.425968
37.540000 5.937553
37.560000 6.363382
37.580000 6.637372
37.600000 6.917719
37.620000 7.208541
37.640000 7.483889
37.660000 7.645474
37.680000 7.831117
37.700000 8.217483
37.720000 8.562092
37.740000 8.796004
37.760000 9.082709
37.780000 9.331535
37.800000 9.547677
37.820000 9.638769
37.840000 9.692276
37.860000 9.866562
37.880000 9.997353
37.900000 10.119760
37.920000 10.185490
37.940000 10.175560
37.960000 10.162800
37.980000 9.981459
38.000000 9.709528
38.020000 9.318274
38.040000 8.974757
38.060000 8.788583
38.080000 8.481937
38.100000 8.226095
38.120000 8.111898
38.140000 8.003498
38.160000 7.839378
38.180000 7.509641
38.200000 7.147990
38.220000 6.938640
38.240000 6.560871
38.260000 6.051135
38.280000 5.647824
38.300000 5.300820
38.320000 4.868522
38.340000 4.335050
38.360000 3.751894
38.380000 3.183105
38.400000 2.555320
38.420000 1.859269
38.440000 1.164982
38.460000 0.662135
38.480000 0.259160
38.500000 -0.150186
38.520000 -0.407246
38.540000 -0.654545
38.560000 -0.902237
38.580000 -1.157812
38.600000 -1.515878
38.620000 -1.819975
38.640000 -2.098138
38.660000 -2.365225
38.680000 -2.539987
38.700000 -2.706627
38.720000 -2.846226
38.740000 -2.939027
38.760000 -3.129374
38.780000 -3.373341
38.800000 -3.703008
38.820000 -4.065975
38.840000 -4.439795
38.860000 -4.828543
38.880000 -5.192364
38.900000 -5.509274
38.920000 -5.776991
38.940000 -6.108408
38.960000 -6.488124
38.980000 -6.832368
39.000000 -7.282213
39.020000 -7.771490
39.040000 -8.210524
39.060000 -8.650523
39.080000 -9.087555
39.100000 -9.413833
39.120000 -9.558488
39.140000 -9.599770
39.160000 -9.716936
39.180000 -9.892090
39.200000 -9.894653
39.220000 -9.925852
39.240000 -10.135650
39.260000 -10.280750
39.280000 -10.101370
39.300000 -9.762559
39.320000 -9.478697
39.340000 -9.217898
39.360000 -8.766835
39.380000 -8.191801
39.400000 -7.776307
39.420000 -7.489378
39.440000 -7.211608
39.460000 -6.960247
39.480000 -6.569273
39.500000 -6.166746
39.520000 -5.760845
39.540000 -5.284660
39.560000 -4.708422
39.580000 -4.028852
39.600000 -3.533245
39.620000 -3.107151
39.640000 -2.650963
39.660000 -2.261712
39.680000 -1.946440
39.700000 -1.678303
39.720000 -1.321624
39.740000 -0.874174
39.760000 -0.515450
39.780000 -0.161879
39.800000 0.257298
39.820000 0.586363
39.840000 0.850621
39.860000 1.143557
39.880000 1.379220
39.900000 1.623606
39.920000 1.947056
39.940000 2.246966
39.960000 2.536822
39.980000 2.842711
40.000000 3.203816
40.020000 3.475565
40.040000 3.704927
40.060000 3.906575
40.080000 4.236844
40.100000 4.543196
40.120000 4.780161
40.140000 5.188807
40.160000 5.616764
40.180000 6.011323
40.200000 6.341522
40.220000 6.630678
40.240000 6.994765
40.260000 7.262216
40.280000 7.485555
40.300000 7.799133
40.320000 8.128422
40.340000 8.468536
40.360000 8.805779
40.380000 9.087863
40.400000 9.356321
40.420000 9.599210
40.440000 9.811795
40.460000 9.941242
40.480000 10.068280
40.500000 10.270330
40.520000 10.372200
40.540000 10.408650
40.560000 10.382140
40.580000 10.310400
40.600000 10.198950
40.620000 9.886895
40.640000 9.502292
40.660000 9.267652
40.680000 9.039369
40.700000 8.733942
40.720000 8.494834
40.740000 8.292667
40.760000 8.169074
40.780000 7.962076
40.800000 7.591463
40.820000 7.288710
40.840000 6.995942
40.860000 6.574104
40.880000 6.085387
40.900000 5.599722
40.920000 5.085547
40.940000 4.586397
40.960000 4.050404
40.980000 3.345124
41.000000 2.737336
41.020000 2.083715
41.040000 1.427335
41.060000 0.836785
41.080000 0.291732
41.100000 -0.110206
41.120000 -0.414094
41.140000 -0.686053
41.160000 -0.998482
41.180000 -1.237758
41.200000 -1.475479
41.220000 -1.770796
41.240000 -2.087370
41.260000 -2.358461
41.280000 -2.574715
41.300000 -2.731119
41.320000 -2.891079
41.340000 -3.086230
41.360000 -3.164159
41.380000 -3.350459
41.400000 -3.642248
41.420000 -3.909194
41.440000 -4.283630
41.460000 -4.603943
41.480000 -4.947403
41.500000 -5.324934
41.520000 -5.616260
41.540000 -5.937259
41.560000 -6.275062
41.580000 -6.632442
41.600000 -7.043679
41.620000 -7.489840
41.640000 -7.906679
41.660000 -8.362628
41.680000 -8.838225
41.700000 -9.280437
41.720000 -9.531727
41.740000 -9.606715
41.760000 -9.669871
41.780000 -9.820393
41.800000 -9.896809
41.820000 -9.842126
41.840000 -9.973379
41.860000 -10.193970
41.880000 -10.147610
41.900000 -9.839437
41.920000 -9.537119
41.940000 -9.350552
41.960000 -8.958710
41.980000 -8.316151
42.000000 -7.815783
42.020000 -7.469830
42.040000 -7.154810
42.060000 -6.872460
42.080000 -6.574734
42.100000 -6.255738
42.120000 -5.843367
42.140000 -5.428321
42.160000 -4.985941
42.180000 -4.299257
42.200000 -3.684636
42.220000 -3.246484
42.240000 -2.825585
42.260000 -2.387854
42.280000 -2.077791
42.300000 -1.904990
42.320000 -1.621030
42.340000 -1.234971
42.360000 -0.871766
42.380000 -0.554379
42.400000 -0.138969
42.420000 0.271595
42.440000 0.520099
42.460000 0.749586
42.480000 1.053935
42.500000 1.265442
42.520000 1.478952
42.540000 1.851469
42.560000 2.189272
42.580000 2.483259
42.600000 2.880422
42.620000 3.259536
42.640000 3.572525
42.660000 3.786706
42.680000 4.062951
42.700000 4.456235
42.720000 4.733600
42.740000 5.060340
42.760000 5.555611
42.780000 6.088132
42.800000 6.452667
42.820000 6.816293
42.840000 7.248212
42.860000 7.558289
42.880000 7.799707
42.900000 8.040425
42.920000 8.362222
42.940000 8.716647
42.960000 9.002386
42.980000 9.355593
43.000000 9.669002
43.020000 9.850304
43.040000 10.053410
43.060000 10.189660
43.080000 10.235210
43.100000 10.300060
43.120000 10.379310
43.140000 10.398240
43.160000 10.353190
43.180000 10.247520
43.200000 10.138970
43.220000 9.880089
43.240000 9.459526
43.260000 9.060458
43.280000 8.792055
43.300000 8.473269
43.320000 8.101087
43.340000 7.886584
43.360000 7.750709
43.380000 7.588732
43.400000 7.310835
43.420000 7.000745
43.440000 6.767281
43.460000 6.417519
43.480000 5.975811
43.500000 5.561731
43.520000 5.149682
43.540000 4.725632
43.560000 4.293642
43.580000 3.812921
43.600000 3.256273
43.620000 2.712774
43.640000 2.097424
43.660000 1.498248
43.680000 0.941152
43.700000 0.441638
43.720000 0.085785
43.740000 -0.216520
43.760000 -0.500284
43.780000 -0.708220
43.800000 -0.924936
43.820000 -1.234159
43.840000 -1.523734
43.860000 -1.835967
43.880000 -2.135345
43.900000 -2.406464
43.920000 -2.640279
43.940000 -2.808963
43.960000 -2.942023
43.980000 -3.177294
44.000000 -3.386238
44.020000 -3.678824
44.040000 -4.056523
44.060000 -4.484956
44.080000 -4.943454
44.100000 -5.323268
44.120000 -5.725388
44.140000 -6.136989
44.160000 -6.426859
44.180000 -6.811153
44.200000 -7.240427
44.220000 -7.640293
44.240000 -8.140031
44.260000 -8.600307
44.280000 -9.113195
44.300000 -9.669576
44.320000 -10.004780
44.340000 -10.105530
44.360000 -10.187900
44.380000 -10.243490
44.400000 -10.271830
44.420000 -10.239850
44.440000 -10.207680
44.460000 -10.405830
44.480000 -10.489350
44.500000 -10.138070
44.520000 -9.814245
44.540000 -9.548209
44.560000 -9.147195
44.580000 -8.510868
44.600000 -7.819942
44.620000 -7.367703
44.640000 -7.009483
44.660000 -6.686341
44.680000 -6.400099
44.700000 -6.081172
44.720000 -5.670047
44.740000 -5.264622
44.760000 -4.796167
44.780000 -4.141272
44.800000 -3.497649
44.820000 -3.023439
44.840000 -2.610578
44.860000 -2.182831
44.880000 -1.947084
44.900000 -1.751331
44.920000 -1.536309
44.940000 -1.256494
44.960000 -0.852301
44.980000 -0.625418
45.000000 -0.199128
45.020000 0.168811
45.040000 0.391352
45.060000 0.624340
45.080000 0.782844
45.100000 1.069927
45.120000 1.203855
45.140000 1.533873
45.160000 1.902231
45.180000 2.158745
45.200000 2.629342
45.220000 2.974875
45.240000 3.250153
45.260000 3.545092
45.280000 3.772255
45.300000 4.112327
45.320000 4.459582
45.340000 4.732438
45.360000 5.243490
45.380000 5.803723
45.400000 6.167951
45.420000 6.632988
45.440000 6.976295
45.460000 7.319658
45.480000 7.610395
45.500000 7.755848
45.520000 8.169060
45.540000 8.480565
45.560000 8.812010
45.580000 9.212661
45.600000 9.489913
45.620000 9.783172
45.640000 9.962401
45.660000 10.091550
45.680000 10.172590
45.700000 10.236870
45.720000 10.357830
45.740000 10.417650
45.760000 10.405690
45.780000 10.427560
45.800000 10.327590
45.820000 10.114560
45.840000 9.773481
45.860000 9.298375
45.880000 9.032521
45.900000 8.689159
45.920000 8.280499
45.940000 8.127806
45.960000 7.934167
45.980000 7.771854
46.000000 7.550587
46.020000 7.255690
46.040000 6.987792
46.060000 6.628199
46.080000 6.194809
46.100000 5.741128
46.120000 5.380976
46.140000 4.924662
46.160000 4.466948
46.180000 4.065149
46.200000 3.493700
46.220000 2.946000
46.240000 2.351193
46.260000 1.644737
46.280000 1.069395
46.300000 0.553987
46.320000 0.096637
46.340000 -0.214308
46.360000 -0.498604
46.380000 -0.693741
46.400000 -0.847862
46.420000 -1.164576
46.440000 -1.455048
46.460000 -1.737440
46.480000 -2.018347
46.500000 -2.306789
46.520000 -2.578720
46.540000 -2.695788
46.560000 -2.832419
46.580000 -2.992155
46.600000 -3.214669
46.620000 -3.520530
46.640000 -3.789745
46.660000 -4.251632
46.680000 -4.735098
46.700000 -5.136043
46.720000 -5.594275
46.740000 -5.958026
46.760000 -6.283983
46.780000 -6.729388
46.800000 -7.067765
46.820000 -7.487236
46.840000 -8.026351
46.860000 -8.485494
46.880000 -9.024259
46.900000 -9.591690
46.920000 -10.004440
46.940000 -10.186580
46.960000 -10.240240
46.980000 -10.276120
47.000000 -10.338180
47.020000 -10.321590
47.040000 -10.206350
47.060000 -10.393560
47.080000 -10.548600
47.100000 -10.284660
47.120000 -9.895269
47.140000 -9.626096
47.160000 -9.273799
47.180000 -8.647863
47.200000 -7.918498
47.220000 -7.403664
47.240000 -7.071658
47.260000 -6.702053
47.280000 -6.472972
47.300000 -6.181674
47.320000 -5.780043
47.340000 -5.404697
47.360000 -5.004537
47.380000 -4.428158
47.400000 -3.710304
47.420000 -3.228252
47.440000 -2.896470
47.460000 -2.451821
47.480000 -2.175857
47.500000 -1.997132
47.520000 -1.880218
47.540000 -1.617557
47.560000 -1.169449
47.580000 -0.924390
47.600000 -0.593309
47.620000 -0.100432
47.640000 0.152343
47.660000 0.335773
47.680000 0.616106
47.700000 0.782060
47.720000 1.010581
47.740000 1.321806
47.760000 1.673248
47.780000 2.064194
47.800000 2.411576
47.820000 2.866517
47.840000 3.259690
47.860000 3.433107
47.880000 3.705459
47.900000 4.065471
47.920000 4.409268
47.940000 4.677418
47.960000 5.156656
47.980000 5.732628
48.000000 6.214596
48.020000 6.593779
48.040000 6.964168
48.060000 7.356640
48.080000 7.599431
48.100000 7.785466
48.120000 8.116939
48.140000 8.466911
48.160000 8.791355
48.180000 9.156311
48.200000 9.508482
48.220000 9.747883
48.240000 9.926916
48.260000 10.107010
48.280000 10.135010
48.300000 10.173100
48.320000 10.278040
48.340000 10.385130
48.360000 10.443910
48.380000 10.373850
48.400000 10.333950
48.420000 10.238380
48.440000 9.868942
48.460000 9.393640
48.480000 9.089403
48.500000 8.768138
48.520000 8.407145
48.540000 8.118073
48.560000 7.945174
48.580000 7.898109
48.600000 7.634481
48.620000 7.330244
48.640000 7.114466
48.660000 6.773218
48.680000 6.337419
48.700000 5.891524
48.720000 5.534662
48.740000 5.158952
48.760000 4.696967
48.780000 4.291780
48.800000 3.835326
48.820000 3.271606
48.840000 2.655080
48.860000 2.004974
48.880000 1.373814
48.900000 0.815444
48.920000 0.346695
48.940000 0.009228
48.960000 -0.278135
48.980000 -0.507888
49.000000 -0.683854
49.020000 -0.941138
49.040000 -1.313726
49.060000 -1.656458
49.080000 -1.945866
49.100000 -2.253576
49.120000 -2.577474
49.140000 -2.773283
49.160000 -2.885268
49.180000 -3.034796
49.200000 -3.241919
49.220000 -3.550091
49.240000 -3.812837
49.260000 -4.247445
49.280000 -4.723531
49.300000 -5.148814
49.320000 -5.584879
49.340000 -5.957830
49.360000 -6.280538
49.380000 -6.620525
49.400000 -6.942827
49.420000 -7.378598
49.440000 -7.803222
49.460000 -8.243026
49.480000 -8.744500
49.500000 -9.314213
49.520000 -9.745405
49.540000 -9.869208
49.560000 -9.913781
49.580000 -10.001740
49.600000 -9.991528
49.620000 -9.928205
49.640000 -9.856353
49.660000 -9.972385
49.680000 -10.142090
49.700000 -10.046240
49.720000 -9.751594
49.740000 -9.452566
49.760000 -9.163943
49.780000 -8.670954
49.800000 -8.066653
49.820000 -7.494784
49.840000 -7.134701
49.860000 -6.934817
49.880000 -6.717261
49.900000 -6.417701
49.920000 -6.141386
49.940000 -5.807350
49.960000 -5.418603
49.980000 -4.886699
50.000000 -4.206695
50.020000 -3.739669
50.040000 -3.344382
50.060000 -2.942499
50.080000 -2.685482
50.100000 -2.450211
50.120000 -2.300263
50.140000 -2.066911
50.160000 -1.679298
50.180000 -1.316554
50.200000 -0.952593
50.220000 -0.540572
50.240000 -0.169959
50.260000 0.123020
50.280000 0.353179
50.300000 0.599904
50.320000 0.856936
50.340000 1.180218
50.360000 1.591931
50.380000 1.955640
50.400000 2.389576
50.420000 2.888908
50.440000 3.260040
50.460000 3.571951
50.480000 3.869676
50.500000 4.192846
50.520000 4.548307
50.540000 4.878731
50.560000 5.310679
50.580000 5.844123
50.600000 6.318347
50.620000 6.762128
50.640000 7.113192
50.660000 7.443965
50.680000 7.722520
50.700000 7.919268
50.720000 8.160770
50.740000 8.441789
50.760000 8.785502
50.780000 9.102188
50.800000 9.406971
50.820000 9.645687
50.840000 9.813041
50.860000 9.952080
50.880000 9.980493
50.900000 9.976670
50.920000 10.098090
50.940000 10.135410
50.960000 10.141420
50.980000 10.151280
51.000000 10.106870
51.020000 9.948467
51.040000 9.652352
51.060000 9.259250
51.080000 8.917526
51.100000 8.607281
51.120000 8.248921
51.140000 8.031267
51.160000 7.869626
51.180000 7.753034
51.200000 7.593297
51.220000 7.381160
51.240000 7.131242
51.260000 6.816671
51.280000 6.484721
51.300000 6.095483
51.320000 5.680171
51.340000 5.340688
51.360000 4.981558
51.380000 4.572631
51.400000 4.090747
51.420000 3.566111
51.440000 2.992981
51.460000 2.367717
51.480000 1.635271
51.500000 1.046472
51.520000 0.637573
51.540000 0.194801
51.560000 -0.153575
51.580000 -0.375430
51.600000 -0.579333
51.620000 -0.830862
51.640000 -1.197778
51.660000 -1.557090
51.680000 -1.830562
51.700000 -2.164738
51.720000 -2.492207
51.740000 -2.676533
51.760000 -2.789569
51.780000 -2.950971
51.800000 -3.135774
51.820000 -3.360500
51.840000 -3.657553
51.860000 -4.047673
51.880000 -4.507151
51.900000 -4.915476
51.920000 -5.309418
51.940000 -5.705139
51.960000 -6.007024
51.980000 -6.277541
52.000000 -6.665658
52.020000 -7.013656
52.040000 -7.452521
52.060000 -7.931423
52.080000 -8.401698
52.100000 -8.900456
52.120000 -9.387129
52.140000 -9.719821
52.160000 -9.828627
52.180000 -9.855849
52.200000 -9.930641
52.220000 -10.002420
52.240000 -10.017430
52.260000 -9.975662
52.280000 -10.172730
52.300000 -10.374650
52.320000 -10.132780
52.340000 -9.737983
52.360000 -9.474215
52.380000 -9.152698
52.400000 -8.649739
52.420000 -8.007307
52.440000 -7.486802
52.460000 -7.300207
52.480000 -7.009343
52.500000 -6.746332
52.520000 -6.455244
52.540000 -6.035423
52.560000 -5.692382
52.580000 -5.213635
52.600000 -4.539233
52.620000 -3.976886
52.640000 -3.482917
52.660000 -3.064861
52.680000 -2.695522
52.700000 -2.361332
52.720000 -2.178938
52.740000 -1.935797
52.760000 -1.570422
52.780000 -1.214022
52.800000 -0.865744
52.820000 -0.465962
52.840000 -0.042696
52.860000 0.221155
52.880000 0.458414
52.900000 0.765158
52.920000 1.003565
52.940000 1.232338
52.960000 1.593947
52.980000 2.000899
53.000000 2.324867
53.020000 2.701543
53.040000 3.124865
53.060000 3.464489
53.080000 3.697547
53.100000 3.952310
53.120000 4.315992
53.140000 4.646779
53.160000 4.950008
53.180000 5.401098
53.200000 5.911703
53.220000 6.309525
53.240000 6.700261
53.260000 7.030096
53.280000 7.326589
53.300000 7.577235
53.320000 7.797144
53.340000 8.092685
53.360000 8.396614
53.380000 8.675407
53.400000 9.056299
53.420000 9.353310
53.440000 9.507053
53.460000 9.729329
53.480000 9.881951
53.500000 9.934562
53.520000 10.001780
53.540000 10.148110
53.560000 10.255130
53.580000 10.303730
53.600000 10.267310
53.620000 10.213730
53.640000 10.079230
53.660000 9.724792
53.680000 9.334980
53.700000 9.080945
53.720000 8.782981
53.740000 8.479640
53.760000 8.270556
53.780000 8.117135
53.800000 7.996972
53.820000 7.774641
53.840000 7.475823
53.860000 7.194818
53.880000 6.827691
53.900000 6.425837
53.920000 5.985893
53.940000 5.528865
53.960000 5.093865
53.980000 4.609600
54.000000 4.177848
54.020000 3.543272
54.040000 2.876614
54.060000 2.326701
54.080000 1.622262
54.100000 0.979353
54.120000 0.448262
54.140000 0.014311
54.160000 -0.257046
54.180000 -0.572094
54.200000 -0.859135
54.220000 -1.001857
54.240000 -1.276393
54.260000 -1.626099
54.280000 -1.923334
54.300000 -2.220990
54.320000 -2.438910
54.340000 -2.678396
54.360000 -2.841087
54.380000 -2.911384
54.400000 -3.057005
54.420000 -3.212386
54.440000 -3.469810
54.460000 -3.782491
54.480000 -4.157179
54.500000 -4.562731
54.520000 -4.906668
54.540000 -5.290542
54.560000 -5.653733
54.580000 -5.911605
54.600000 -6.228011
54.620000 -6.580224
54.640000 -7.002649
54.660000 -7.447452
54.680000 -7.862932
54.700000 -8.368524
54.720000 -8.879605
54.740000 -9.315151
54.760000 -9.541362
54.780000 -9.683426
54.800000 -9.763371
54.820000 -9.833416
54.840000 -9.926034
54.860000 -9.902592
54.880000 -9.984722
54.900000 -10.223890
54.920000 -10.244860
54.940000 -10.029380
54.960000 -9.618870
54.980000 -9.341800
55.000000 -9.054535
55.020000 -8.447027
55.040000 -7.835850
55.060000 -7.473779
55.080000 -7.197506
55.100000 -6.980104
55.120000 -6.631322
55.140000 -6.298980
55.160000 -5.981398
55.180000 -5.522648
55.200000 -5.067496
55.220000 -4.446741
55.240000 -3.865195
55.260000 -3.462612
55.280000 -3.018888
55.300000 -2.721890
55.320000 -2.383555
55.340000 -2.147724
55.360000 -1.977807
55.380000 -1.551629
55.400000 -1.136149
55.420000 -0.824378
55.440000 -0.404725
55.460000 -0.007408
55.480000 0.315622
55.500000 0.590494
55.520000 0.854877
55.540000 1.182668
55.560000 1.482788
55.580000 1.873622
55.600000 2.254262
55.620000 2.647028
55.640000 3.112388
55.660000 3.458355
55.680000 3.831223
55.700000 4.104989
55.720000 4.379707
55.740000 4.795649
55.760000 5.090000
55.780000 5.418813
55.800000 5.926911
55.820000 6.358887
55.840000 6.791633
55.860000 7.100911
55.880000 7.377239
55.900000 7.758425
55.920000 7.883013
55.940000 8.100107
55.960000 8.412536
55.980000 8.678404
56.000000 8.965081
56.020000 9.232573
56.040000 9.488835
56.060000 9.699390
56.080000 9.822717
56.100000 9.916582
56.120000 9.953859
56.140000 10.051520
56.160000 10.107210
56.180000 10.128330
56.200000 10.129330
56.220000 10.023680
56.240000 9.908978
56.260000 9.656147
56.280000 9.239603
56.300000 8.926684
56.320000 8.647247
56.340000 8.326850
56.360000 8.069664
56.380000 7.836830
56.400000 7.739969
56.420000 7.627508
56.440000 7.307223
56.460000 7.054392
56.480000 6.816517
56.500000 6.478307
56.520000 6.054173
56.540000 5.651997
56.560000 5.336039
56.580000 4.889751
56.600000 4.477590
56.620000 3.974337
56.640000 3.435054
56.660000 2.924967
56.680000 2.197800
56.700000 1.584761
56.720000 1.060055
56.740000 0.529187
56.760000 0.142470
56.780000 -0.156110
56.800000 -0.441078
56.820000 -0.676559
56.840000 -0.944821
56.860000 -1.256536
56.880000 -1.555550
56.900000 -1.927297
56.920000 -2.225345
56.940000 -2.437412
56.960000 -2.716205
56.980000 -2.851856
57.000000 -2.982395
57.020000 -3.164593
57.040000 -3.395844
57.060000 -3.671963
57.080000 -4.027746
57.100000 -4.449248
57.120000 -4.844128
57.140000 -5.281510
57.160000 -5.607312
57.180000 -5.969327
57.200000 -6.375173
57.220000 -6.656262
57.240000 -7.009413
57.260000 -7.497640
57.280000 -7.999787
57.300000 -8.375063
57.320000 -8.841599
57.340000 -9.413497
57.360000 -9.757882
57.380000 -9.875412
57.400000 -9.873704
57.420000 -9.983924
57.440000 -10.106310
57.460000 -9.956239
57.480000 -9.941004
57.500000 -10.149910
57.520000 -10.202500
57.540000 -9.960776
57.560000 -9.634120
57.580000 -9.347275
57.600000 -9.058484
57.620000 -8.482035
57.640000 -7.856771
57.660000 -7.412192
57.680000 -7.044785
57.700000 -6.829106
57.720000 -6.593947
57.740000 -6.252755
57.760000 -5.908888
57.780000 -5.580187
57.800000 -5.193344
57.820000 -4.583624
57.840000 -3.969184
57.860000 -3.538777
57.880000 -3.120160
57.900000 -2.715687
57.920000 -2.389772
57.940000 -2.202898
57.960000 -2.003322
57.980000 -1.660883
58.000000 -1.277373
58.020000 -0.957634
58.040000 -0.550962
58.060000 -0.136855
58.080000 0.218971
58.100000 0.503687
58.120000 0.784525
58.140000 1.062421
58.160000 1.328065
58.180000 1.686159
58.200000 2.058733
58.220000 2.422442
58.240000 2.862596
58.260000 3.266467
58.280000 3.631647
58.300000 3.893944
58.320000 4.183590
58.340000 4.546879
58.360000 4.799052
58.380000 5.130903
58.400000 5.583380
58.420000 6.018815
58.440000 6.447276
58.460000 6.813408
58.480000 7.145568
58.500000 7.462352
58.520000 7.674531
58.540000 7.863002
58.560000 8.144190
58.580000 8.414119
58.600000 8.686792
58.620000 9.019176
58.640000 9.296177
58.660000 9.504253
58.680000 9.732382
58.700000 9.804303
58.720000 9.880915
58.740000 9.979331
58.760000 10.066240
58.780000 10.152270
58.800000 10.158100
58.820000 10.128660
58.840000 10.118190
58.860000 9.905603
58.880000 9.556499
58.900000 9.241648
58.920000 8.927538
58.940000 8.618750
58.960000 8.304318
58.980000 8.058545
59.000000 7.934881
59.020000 7.773689
59.040000 7.552127
59.060000 7.285699
59.080000 7.004512
59.100000 6.707164
59.120000 6.253553
59.140000 5.874272
59.160000 5.421403
59.180000 5.000056
59.200000 4.589967
59.220000 4.073579
59.240000 3.554026
59.260000 2.990027
59.280000 2.357061
59.300000 1.749062
59.320000 1.115032
59.340000 0.621511
59.360000 0.218831
59.380000 -0.192000
59.400000 -0.394111
59.420000 -0.605001
59.440000 -0.856054
59.460000 -1.089014
59.480000 -1.402101
59.500000 -1.692965
59.520000 -1.967571
59.540000 -2.306200
59.560000 -2.487446
59.580000 -2.635013
59.600000 -2.808389
59.620000 -2.924925
59.640000 -3.142551
59.660000 -3.363651
59.680000 -3.703582
59.700000 -4.139073
59.720000 -4.506577
59.740000 -4.964922
59.760000 -5.388705
59.780000 -5.710181
59.800000 -6.067014
59.820000 -6.431158
59.840000 -6.784911
59.860000 -7.203654
59.880000 -7.659113
59.900000 -8.165923
59.920000 -8.663925
59.940000 -9.115477
59.960000 -9.658458
59.980000 -9.955875
60.000000 -9.942292
60.020000 -10.053810
60.040000 -10.141380
60.060000 -10.232040
60.080000 -10.155700
60.100000 -10.167490
60.120000 -10.490470
60.140000 -10.402850
60.160000 -9.952991
60.180000 -9.748920
60.200000 -9.456319
60.220000 -8.948809
60.240000 -8.307273
60.260000 -7.716009
60.280000 -7.386132
60.300000 -7.044393
60.320000 -6.753319
60.340000 -6.534447
60.360000 -6.085919
60.380000 -5.681768
60.400000 -5.329527
60.420000 -4.793394
60.440000 -4.086910
60.460000 -3.476014
60.480000 -3.141585
60.500000 -2.700549
60.520000 -2.276247
60.540000 -2.081964
60.560000 -1.919609
60.580000 -1.659301
60.600000 -1.226247
60.620000 -0.919895
60.640000 -0.644267
60.660000 -0.140328
60.680000 0.205065
60.700000 0.411181
60.720000 0.711567
60.740000 0.927177
60.760000 1.150727
60.780000 1.452247
60.800000 1.818085
60.820000 2.204088
60.840000 2.543767
60.860000 3.010458
60.880000 3.428836
60.900000 3.684930
60.920000 3.944468
60.940000 4.277832
60.960000 4.674436
60.980000 4.921371
61.000000 5.310048
61.020000 5.892631
61.040000 6.322898
61.060000 6.676945
61.080000 7.057010
61.100000 7.391229
61.120000 7.678382
61.140000 7.827252
61.160000 8.022318
61.180000 8.394780
61.200000 8.599131
61.220000 8.901604
61.240000 9.245190
61.260000 9.407882
61.280000 9.625172
61.300000 9.756033
61.320000 9.800242
61.340000 9.847461
61.360000 9.914131
61.380000 10.050410
61.400000 10.062410
61.420000 10.041170
61.440000 10.010180
61.460000 9.925474
61.480000 9.647437
61.500000 9.221217
61.520000 8.911700
61.540000 8.691931
61.560000 8.321752
61.580000 8.050941
61.600000 7.918343
61.620000 7.769978
61.640000 7.658721
61.660000 7.384899
61.680000 7.128610
61.700000 6.888690
61.720000 6.479904
61.740000 6.083132
61.760000 5.713681
61.780000 5.295639
61.800000 4.895409
61.820000 4.491916
61.840000 4.013729
61.860000 3.439423
61.880000 2.846198
61.900000 2.202645
61.920000 1.559065
61.940000 0.957900
61.960000 0.456720
61.980000 0.111117
62.000000 -0.186455
62.020000 -0.469547
62.040000 -0.668955
62.060000 -0.880476
62.080000 -1.216290
62.100000 -1.525079
62.120000 -1.828293
62.140000 -2.106736
62.160000 -2.373010
62.180000 -2.605872
62.200000 -2.705898
62.220000 -2.809215
62.240000 -3.017235
62.260000 -3.265319
62.280000 -3.552192
62.300000 -3.933238
62.320000 -4.397155
62.340000 -4.852026
62.360000 -5.285024
62.380000 -5.656282
62.400000 -6.036039
62.420000 -6.397858
62.440000 -6.754580
62.460000 -7.183573
62.480000 -7.643219
62.500000 -8.137818
62.520000 -8.655537
62.540000 -9.188883
62.560000 -9.724918
62.580000 -10.017360
62.600000 -10.060630
62.620000 -10.158940
62.640000 -10.193190
62.660000 -10.246960
62.680000 -10.200580
62.700000 -10.204150
62.720000 -10.439780
62.740000 -10.404750
62.760000 -10.059110
62.780000 -9.800956
62.800000 -9.506241
62.820000 -9.031877
62.840000 -8.410954
62.860000 -7.787132
62.880000 -7.368501
62.900000 -7.038638
62.920000 -6.784981
62.940000 -6.547218
62.960000 -6.170961
62.980000 -5.781850
63.000000 -5.422439
63.020000 -4.904315
63.040000 -4.237587
63.060000 -3.604326
63.080000 -3.253598
63.100000 -2.827042
63.120000 -2.437818
63.140000 -2.253702
63.160000 -2.061211
63.180000 -1.866747
63.200000 -1.498416
63.220000 -1.141288
63.240000 -0.821704
63.260000 -0.391534
63.280000 0.000238
63.300000 0.276637
63.320000 0.545963
63.340000 0.813190
63.360000 1.020691
63.380000 1.309595
63.400000 1.711393
63.420000 2.069515
63.440000 2.430550
63.460000 2.893824
63.480000 3.300775
63.500000 3.575760
63.520000 3.824655
63.540000 4.082051
63.560000 4.434334
63.580000 4.710396
63.600000 5.005867
63.620000 5.534494
63.640000 5.986425
63.660000 6.367219
63.680000 6.723422
63.700000 7.032392
63.720000 7.320274
63.740000 7.542465
63.760000 7.745486
63.780000 8.030244
63.800000 8.355417
63.820000 8.718174
63.840000 9.078130
63.860000 9.345399
63.880000 9.580179
63.900000 9.821191
63.920000 9.948299
63.940000 9.947165
63.960000 10.078890
63.980000 10.277840
64.000000 10.334360
64.020000 10.323040
64.040000 10.322230
64.060000 10.293150
64.080000 10.075800
64.100000 9.647703
64.120000 9.302072
64.140000 9.035728
64.160000 8.725301
64.180000 8.388506
64.200000 8.217847
64.220000 8.112192
64.240000 7.942695
64.260000 7.738764
64.280000 7.451289
64.300000 7.161027
64.320000 6.818253
64.340000 6.367513
64.360000 5.958292
64.380000 5.539354
64.400000 5.053367
64.420000 4.621727
64.440000 4.140571
64.460000 3.493994
64.480000 2.905783
64.500000 2.248310
64.520000 1.554920
64.540000 0.935411
64.560000 0.373638
64.580000 0.032992
64.600000 -0.310413
64.620000 -0.584430
64.640000 -0.757134
64.660000 -0.973122
64.680000 -1.218363
64.700000 -1.550313
64.720000 -1.861131
64.740000 -2.082609
64.760000 -2.350857
64.780000 -2.578594
64.800000 -2.702384
64.820000 -2.830276
64.840000 -2.941841
64.860000 -3.187796
64.880000 -3.480201
64.900000 -3.792098
64.920000 -4.271923
64.940000 -4.673399
64.960000 -5.108932
64.980000 -5.558258
65.000000 -5.852273
65.020000 -6.215842
65.040000 -6.566332
65.060000 -6.955388
65.080000 -7.394338
65.100000 -7.845176
65.120000 -8.330098
65.140000 -8.874521
65.160000 -9.433284
65.180000 -9.762503
65.200000 -9.853763
65.220000 -9.952823
65.240000 -10.062400
65.260000 -10.087660
65.280000 -10.065060
65.300000 -10.076440
65.320000 -10.322960
65.340000 -10.424250
65.360000 -10.099520
65.380000 -9.865722
65.400000 -9.644804
65.420000 -9.223961
65.440000 -8.646533
65.460000 -8.010346
65.480000 -7.548234
65.500000 -7.186892
65.520000 -6.895398
65.540000 -6.671246
65.560000 -6.329578
65.580000 -5.914574
65.600000 -5.569573
65.620000 -5.158644
65.640000 -4.455479
65.660000 -3.835970
65.680000 -3.425377
65.700000 -3.007909
65.720000 -2.568245
65.740000 -2.327345
65.760000 -2.184091
65.780000 -1.938024
65.800000 -1.600305
65.820000 -1.242547
65.840000 -0.933492
65.860000 -0.501699
65.880000 -0.067230
65.900000 0.163377
65.920000 0.432942
65.940000 0.751785
65.960000 0.934739
65.980000 1.158863
66.000000 1.562762
66.020000 1.902343
66.040000 2.239418
66.060000 2.646902
66.080000 3.065701
66.100000 3.417984
66.120000 3.578980
66.140000 3.899797
66.160000 4.247753
66.180000 4.485880
66.200000 4.803771
66.220000 5.283400
66.240000 5.756756
66.260000 6.138152
66.280000 6.508275
66.300000 6.899641
66.320000 7.172174
66.340000 7.369229
66.360000 7.649955
66.380000 7.940637
66.400000 8.219822
66.420000 8.560832
66.440000 8.916685
66.460000 9.270621
66.480000 9.437401
66.500000 9.661146
66.520000 9.885704
66.540000 9.883240
66.560000 9.973211
66.580000 10.192830
66.600000 10.291510
66.620000 10.305580
66.640000 10.329710
66.660000 10.317500
66.680000 10.177070
66.700000 9.803799
66.720000 9.450004
66.740000 9.246563
66.760000 8.898229
66.780000 8.540765
66.800000 8.396082
66.820000 8.273385
66.840000 8.085852
66.860000 7.861378
66.880000 7.623559
66.900000 7.368025
66.920000 6.967557
66.940000 6.512560
66.960000 6.126781
66.980000 5.687187
67.000000 5.186609
67.020000 4.677796
67.040000 4.244378
67.060000 3.636128
67.080000 2.947849
67.100000 2.354568
67.120000 1.684717
67.140000 0.998188
67.160000 0.484923
67.180000 0.074302
67.200000 -0.263151
67.220000 -0.525392
67.240000 -0.786961
67.260000 -0.913510
67.280000 -1.133502
67.300000 -1.532164
67.320000 -1.777251
67.340000 -2.022940
67.360000 -2.268181
67.380000 -2.517539
67.400000 -2.663286
67.420000 -2.695410
67.440000 -2.833175
67.460000 -3.018734
67.480000 -3.290217
67.500000 -3.550049
67.520000 -3.944412
67.540000 -4.413357
67.560000 -4.777739
67.580000 -5.177437
67.600000 -5.572766
67.620000 -5.813582
67.640000 -6.195663
67.660000 -6.582422
67.680000 -6.966717
67.700000 -7.473583
67.720000 -7.900825
67.740000 -8.413699
67.760000 -8.976592
67.780000 -9.366544
67.800000 -9.686955
67.820000 -9.780847
67.840000 -9.850724
67.860000 -9.990324
67.880000 -10.036660
67.900000 -10.063450
67.920000 -10.138590
67.940000 -10.392460
67.960000 -10.405100
67.980000 -10.011850
68.000000 -9.764309
68.020000 -9.539079
68.040000 -9.098449
68.060000 -8.527224
68.080000 -7.912462
68.100000 -7.585567
68.120000 -7.308119
68.140000 -6.992455
68.160000 -6.785835
68.180000 -6.392971
68.200000 -5.942146
68.220000 -5.627869
68.240000 -5.089916
68.260000 -4.418006
68.280000 -3.879157
68.300000 -3.443428
68.320000 -3.099435
68.340000 -2.661998
68.360000 -2.383485
68.380000 -2.225499
68.400000 -1.894389
68.420000 -1.494327
68.440000 -1.105776
68.460000 -0.776487
68.480000 -0.335815
68.500000 0.096063
68.520000 0.339778
68.540000 0.639842
68.560000 0.964062
68.580000 1.220982
68.600000 1.513330
68.620000 1.942001
68.640000 2.315261
68.660000 2.655248
68.680000 3.092195
68.700000 3.516133
68.720000 3.784970
68.740000 4.003072
68.760000 4.337809
68.780000 4.682754
68.800000 4.961799
68.820000 5.279787
68.840000 5.784609
68.860000 6.225533
68.880000 6.532094
68.900000 6.883691
68.920000 7.206930
68.940000 7.474213
68.960000 7.641259
68.980000 7.878042
69.000000 8.216433
69.020000 8.457291
69.040000 8.782743
69.060000 9.136202
69.080000 9.361068
69.100000 9.568388
69.120000 9.730239
69.140000 9.883856
69.160000 9.930417
69.180000 10.036910
69.200000 10.210650
69.220000 10.280730
69.240000 10.247960
69.260000 10.249330
69.280000 10.158130
69.300000 9.898223
69.320000 9.503539
69.340000 9.164741
69.360000 8.957967
69.380000 8.583965
69.400000 8.285904
69.420000 8.143840
69.440000 8.014715
69.460000 7.814410
69.480000 7.518239
69.500000 7.274203
69.520000 6.995102
69.540000 6.571962
69.560000 6.175246
69.580000 5.747094
69.600000 5.355980
69.620000 4.876266
69.640000 4.435972
69.660000 3.962336
69.680000 3.337198
69.700000 2.732743
69.720000 2.148032
69.740000 1.489720
69.760000 0.898708
69.780000 0.448724
69.800000 0.125568
69.820000 -0.137751
69.840000 -0.490762
69.860000 -0.668703
69.880000 -0.801175
69.900000 -1.152169
69.920000 -1.500097
69.940000 -1.807218
69.960000 -2.010729
69.980000 -2.272732
70.000000 -2.577530
70.020000 -2.663860
70.040000 -2.772961
70.060000 -2.985896
70.080000 -3.231585
70.100000 -3.526202
70.120000 -3.850422
70.140000 -4.305699
70.160000 -4.756944
70.180000 -5.112629
70.200000 -5.517732
70.220000 -5.901565
70.240000 -6.192345
70.260000 -6.568111
70.280000 -6.975833
70.300000 -7.433953
70.320000 -7.907575
70.340000 -8.327746
70.360000 -8.865517
70.380000 -9.421633
70.400000 -9.749592
70.420000 -9.928779
70.440000 -10.021030
70.460000 -10.124990
70.480000 -10.238320
70.500000 -10.222650
70.520000 -10.221480
70.540000 -10.400800
70.560000 -10.475020
70.580000 -10.276900
70.600000 -9.930459
70.620000 -9.604335
70.640000 -9.296541
70.660000 -8.732499
70.680000 -8.090431
70.700000 -7.602582
70.720000 -7.225877
70.740000 -6.934243
70.760000 -6.631826
70.780000 -6.299288
70.800000 -5.912795
70.820000 -5.484642
70.840000 -5.070801
70.860000 -4.469987
70.880000 -3.813607
70.900000 -3.372641
70.920000 -2.964177
70.940000 -2.540477
70.960000 -2.242415
70.980000 -1.994345
71.000000 -1.800889
71.020000 -1.497240
71.040000 -1.057296
71.060000 -0.783040
71.080000 -0.388958
71.100000 0.026956
71.120000 0.329359
71.140000 0.614538
71.160000 0.837667
71.180000 1.121348
71.200000 1.333359
71.220000 1.664006
71.240000 2.034171
71.260000 2.318593
71.280000 2.734227
71.300000 3.076722
71.320000 3.431973
71.340000 3.658505
71.360000 3.891143
71.380000 4.252290
71.400000 4.527582
71.420000 4.810394
71.440000 5.253713
71.460000 5.728973
71.480000 6.147422
71.500000 6.522964
71.520000 6.862210
71.540000 7.242093
71.560000 7.483525
71.580000 7.715239
71.600000 8.068334
71.620000 8.380413
71.640000 8.725161
71.660000 9.066381
71.680000 9.396147
71.700000 9.651694
71.720000 9.851270
71.740000 10.046390
71.760000 10.109270
71.780000 10.216630
71.800000 10.358110
71.820000 10.414860
71.840000 10.451050
71.860000 10.418280
71.880000 10.349920
71.900000 10.213190
71.920000 9.845319
71.940000 9.463307
71.960000 9.187777
71.980000 8.865335
72.000000 8.533903
72.020000 8.249663
72.040000 8.092391
72.060000 7.939363
72.080000 7.657923
72.100000 7.342063
72.120000 7.022590
72.140000 6.710483
72.160000 6.233781
72.180000 5.760719
72.200000 5.312149
72.220000 4.840264
72.240000 4.404353
72.260000 3.898243
72.280000 3.323153
72.300000 2.788910
72.320000 2.219141
72.340000 1.606690
72.360000 1.035633
72.380000 0.531890
72.400000 0.183542
72.420000 -0.069849
72.440000 -0.391884
72.460000 -0.565722
72.480000 -0.716314
72.500000 -0.932246
72.520000 -1.236441
72.540000 -1.574777
72.560000 -1.779632
72.580000 -2.020770
72.600000 -2.281975
72.620000 -2.440129
72.640000 -2.565445
72.660000 -2.708615
72.680000 -2.931199
72.700000 -3.198495
72.720000 -3.517968
72.740000 -3.923085
72.760000 -4.348675
72.780000 -4.753289
72.800000 -5.186567
72.820000 -5.599876
72.840000 -5.934613
72.860000 -6.293967
72.880000 -6.726083
72.900000 -7.191905
72.920000 -7.656859
72.940000 -8.104854
72.960000 -8.656895
72.980000 -9.207185
73.000000 -9.683244
73.020000 -10.019520
73.040000 -10.152620
73.060000 -10.253490
73.080000 -10.391510
73.100000 -10.425160
73.120000 -10.419890
73.140000 -10.488210
73.160000 -10.606220
73.180000 -10.614360
73.200000 -10.291310
73.220000 -9.907942
73.240000 -9.657548
73.260000 -9.182469
73.280000 -8.548159
73.300000 -7.977032
73.320000 -7.459593
73.340000 -7.128946
73.360000 -6.817343
73.380000 -6.516396
73.400000 -6.127257
73.420000 -5.665678
73.440000 -5.297936
73.460000 -4.820379
73.480000 -4.123795
73.500000 -3.517954
73.520000 -3.054246
73.540000 -2.641609
73.560000 -2.239180
73.580000 -1.899375
73.600000 -1.735507
73.620000 -1.480282
73.640000 -1.108871
73.660000 -0.790770
73.680000 -0.423868
73.700000 -0.048704
73.720000 0.303579
73.740000 0.616680
73.760000 0.844641
73.780000 1.138530
73.800000 1.337490
73.820000 1.563238
73.840000 1.945908
73.860000 2.283627
73.880000 2.584545
73.900000 2.971108
73.920000 3.390607
73.940000 3.686554
73.960000 3.935170
73.980000 4.209062
74.000000 4.522317
74.020000 4.866226
74.040000 5.144011
74.060000 5.586923
74.080000 6.088524
74.100000 6.452541
74.120000 6.820340
74.140000 7.150385
74.160000 7.435325
74.180000 7.699443
74.200000 7.920402
74.220000 8.161372
74.240000 8.504818
74.260000 8.791621
74.280000 9.121555
74.300000 9.382802
74.320000 9.552648
74.340000 9.780693
74.360000 9.888225
74.380000 9.924256
74.400000 10.008920
74.420000 10.089270
74.440000 10.158870
74.460000 10.116120
74.480000 10.084970
74.500000 9.976264
74.520000 9.745811
74.540000 9.420793
74.560000 9.000692
74.580000 8.735034
74.600000 8.467822
74.620000 8.113144
74.640000 7.923315
74.660000 7.754084
74.680000 7.610788
74.700000 7.397670
74.720000 7.103516
74.740000 6.814514
74.760000 6.477131
74.780000 6.133446
74.800000 5.698334
74.820000 5.270041
74.840000 4.902172
74.860000 4.518508
74.880000 4.083382
74.900000 3.533077
74.920000 2.958771
74.940000 2.431264
74.960000 1.853752
74.980000 1.188270
75.000000 0.759360
75.020000 0.374646
75.040000 0.088067
75.060000 -0.129223
75.080000 -0.443879
75.100000 -0.598532
75.120000 -0.872606
75.140000 -1.260695
75.160000 -1.563952
75.180000 -1.913406
75.200000 -2.212434
75.220000 -2.445576
75.240000 -2.648429
75.260000 -2.855076
75.280000 -3.005038
75.300000 -3.237998
75.320000 -3.518262
75.340000 -3.926670
75.360000 -4.396595
75.380000 -4.801656
75.400000 -5.237917
75.420000 -5.690856
75.440000 -6.123280
75.460000 -6.431676
75.480000 -6.758053
75.500000 -7.220738
75.520000 -7.695844
75.540000 -8.163080
75.560000 -8.622615
75.580000 -9.180075
75.600000 -9.768314
75.620000 -10.216230
75.640000 -10.341890
75.660000 -10.392460
75.680000 -10.524190
75.700000 -10.546720
75.720000 -10.534490
75.740000 -10.462570
75.760000 -10.569120
75.780000 -10.723360
75.800000 -10.405790
75.820000 -10.009770
75.840000 -9.719891
75.860000 -9.336240
75.880000 -8.711844
75.900000 -7.985840
75.920000 -7.431769
75.940000 -7.047278
75.960000 -6.667129
75.980000 -6.360105
76.000000 -6.038294
76.020000 -5.573032
76.040000 -5.164638
76.060000 -4.740630
76.080000 -4.139717
76.100000 -3.477596
76.120000 -2.949403
76.140000 -2.625323
76.160000 -2.213176
76.180000 -1.840827
76.200000 -1.730228
76.220000 -1.540832
76.240000 -1.240320
76.260000 -0.867943
76.280000 -0.578647
76.300000 -0.256234
76.320000 0.157244
76.340000 0.446063
76.360000 0.636761
76.380000 0.853687
76.400000 1.123910
76.420000 1.282218
76.440000 1.581736
76.460000 1.969573
76.480000 2.241421
76.500000 2.615199
76.520000 3.020820
76.540000 3.346973
76.560000 3.584484
76.580000 3.812570
76.600000 4.151074
76.620000 4.465884
76.640000 4.707974
76.660000 5.148072
76.680000 5.691682
76.700000 6.095343
76.720000 6.456126
76.740000 6.856146
76.760000 7.224155
76.780000 7.479968
76.800000 7.718431
76.820000 8.068320
76.840000 8.404190
76.860000 8.741321
76.880000 9.099737
76.900000 9.459358
76.920000 9.703493
76.940000 9.900548
76.960000 10.089920
76.980000 10.178510
77.000000 10.219380
77.020000 10.365190
77.040000 10.478490
77.060000 10.470680
77.080000 10.445190
77.100000 10.375540
77.120000 10.235120
77.140000 9.841580
77.160000 9.385938
77.180000 9.128346
77.200000 8.774313
77.220000 8.406823
77.240000 8.102726
77.260000 7.950173
77.280000 7.818808
77.300000 7.502065
77.320000 7.243493
77.340000 6.970344
77.360000 6.578599
77.380000 6.180610
77.400000 5.712827
77.420000 5.292628
77.440000 4.920181
77.460000 4.413119
77.480000 4.056803
77.500000 3.580199
77.520000 2.950425
77.540000 2.443153
77.560000 1.871606
77.580000 1.269853
77.600000 0.772622
77.620000 0.350350
77.640000 0.087129
77.660000 -0.147189
77.680000 -0.396785
77.700000 -0.546579
77.720000 -0.776893
77.740000 -1.105300
77.760000 -1.397228
77.780000 -1.723492
77.800000 -2.009203
77.820000 -2.279230
77.840000 -2.472910
77.860000 -2.615997
77.880000 -2.815475
77.900000 -3.038030
77.920000 -3.288915
77.940000 -3.647191
77.960000 -4.115981
77.980000 -4.577420
78.000000 -5.022671
78.020000 -5.480960
78.040000 -5.917613
78.060000 -6.301137
78.080000 -6.636013
78.100000 -7.074907
78.120000 -7.506182
78.140000 -8.001649
78.160000 -8.511470
78.180000 -9.015731
78.200000 -9.595975
78.220000 -10.118790
78.240000 -10.356460
78.260000 -10.416280
78.280000 -10.497990
78.300000 -10.556070
78.320000 -10.576360
78.340000 -10.475110
78.360000 -10.539820
78.380000 -10.736320
78.400000 -10.540010
78.420000 -10.158410
78.440000 -9.849198
78.460000 -9.493330
78.480000 -8.900189
78.500000 -8.171272
78.520000 -7.605270
78.540000 -7.077105
78.560000 -6.696788
78.580000 -6.433258
78.600000 -6.127789
78.620000 -5.683854
78.640000 -5.235831
78.660000 -4.879949
78.680000 -4.328889
78.700000 -3.573015
78.720000 -3.005430
78.740000 -2.660149
78.760000 -2.207463
78.780000 -1.845868
78.800000 -1.688274
78.820000 -1.563616
78.840000 -1.318599
78.860000 -0.979423
78.880000 -0.715110
78.900000 -0.419191
78.920000 -0.021089
78.940000 0.294071
78.960000 0.485035
78.980000 0.669151
79.000000 0.937735
79.020000 1.055252
79.040000 1.271954
79.060000 1.696578
79.080000 1.951201
79.100000 2.289970
79.120000 2.714160
79.140000 3.065925
79.160000 3.327130
79.180000 3.527658
79.200000 3.855575
79.220000 4.183394
79.240000 4.398149
79.260000 4.830587
79.280000 5.372293
79.300000 5.835371
79.320000 6.248778
79.340000 6.656696
79.360000 7.091767
79.380000 7.386300
79.400000 7.621710
79.420000 7.998709
79.440000 8.320114
79.460000 8.673083
79.480000 9.085118
79.500000 9.461794
79.520000 9.762671
79.540000 9.948313
79.560000 10.197200
79.580000 10.334920
79.600000 10.333910
79.620000 10.467430
79.640000 10.601930
79.660000 10.607420
79.680000 10.582880
79.700000 10.505750
79.720000 10.406810
79.740000 10.089690
79.760000 9.599658
79.780000 9.262723
79.800000 8.965263
79.820000 8.556295
79.840000 8.228756
79.860000 8.046362
79.880000 7.875325
79.900000 7.639368
79.920000 7.366373
79.940000 7.057837
79.960000 6.732244
79.980000 6.275819
80.000000 5.823062
80.020000 5.457112
80.040000 4.957920
80.060000 4.499744
80.080000 4.118530
80.100000 3.646813
80.120000 3.095612
80.140000 2.541821
80.160000 1.955318
80.180000 1.410951
80.200000 0.898974
80.220000 0.436625
80.240000 0.163629
80.260000 -0.092562
80.280000 -0.312471
80.300000 -0.469603
80.320000 -0.691906
80.340000 -0.990360
80.360000 -1.274964
80.380000 -1.578319
80.400000 -1.895706
80.420000 -2.164192
80.440000 -2.376833
80.460000 -2.527510
80.480000 -2.688590
80.500000 -2.927642
80.520000 -3.164761
80.540000 -3.472135
80.560000 -3.926208
80.580000 -4.385252
80.600000 -4.828767
80.620000 -5.279773
80.640000 -5.709452
80.660000 -6.119989
80.680000 -6.483208
80.700000 -6.855026
80.720000 -7.299843
80.740000 -7.789821
80.760000 -8.249481
80.780000 -8.734278
80.800000 -9.328076
80.820000 -9.832856
80.840000 -10.143790
80.860000 -10.264690
80.880000 -10.316320
80.900000 -10.433120
80.920000 -10.492040
80.940000 -10.380160
80.960000 -10.450590
80.980000 -10.644070
81.000000 -10.595580
81.020000 -10.299800
81.040000 -9.934660
81.060000 -9.650182
81.080000 -9.191516
81.100000 -8.487734
81.120000 -7.863464
81.140000 -7.317445
81.160000 -6.936834
81.180000 -6.657032
81.200000 -6.351101
81.220000 -5.932862
81.240000 -5.497540
81.260000 -5.125456
81.280000 -4.625592
81.300000 -3.923925
81.320000 -3.296630
81.340000 -2.905180
81.360000 -2.493061
81.380000 -2.078506
81.400000 -1.835351
81.420000 -1.733631
81.440000 -1.502561
81.460000 -1.155082
81.480000 -0.885881
81.500000 -0.572037
81.520000 -0.192084
81.540000 0.148436
81.560000 0.371985
81.580000 0.589668
81.600000 0.816536
81.620000 0.969439
81.640000 1.207972
81.660000 1.534503
81.680000 1.854886
81.700000 2.178952
81.720000 2.564016
81.740000 3.002924
81.760000 3.256273
81.780000 3.434886
81.800000 3.781623
81.820000 4.106123
81.840000 4.366306
81.860000 4.697919
81.880000 5.210597
81.900000 5.753703
81.920000 6.142633
81.940000 6.526535
81.960000 6.997300
81.980000 7.314392
82.000000 7.608351
82.020000 7.891849
82.040000 8.226348
82.060000 8.612854
82.080000 8.996645
82.100000 9.360872
82.120000 9.699712
82.140000 9.927855
82.160000 10.184560
82.180000 10.317200
82.200000 10.324530
82.220000 10.453160
82.240000 10.580970
82.260000 10.605560
82.280000 10.546570
82.300000 10.527320
82.320000 10.466700
82.340000 10.150240
82.360000 9.715592
82.380000 9.371179
82.400000 9.058302
82.420000 8.673881
82.440000 8.262896
82.460000 8.083667
82.480000 7.930442
82.500000 7.687288
82.520000 7.436488
82.540000 7.148438
82.560000 6.856034
82.580000 6.453759
82.600000 5.990052
82.620000 5.576308
82.640000 5.121339
82.660000 4.667910
82.680000 4.270271
82.700000 3.815483
82.720000 3.260320
82.740000 2.741733
82.760000 2.213554
82.780000 1.602167
82.800000 1.026195
82.820000 0.612997
82.840000 0.281636
82.860000 -0.001876
82.880000 -0.238589
82.900000 -0.454969
82.920000 -0.559771
82.940000 -0.847358
82.960000 -1.223138
82.980000 -1.439420
83.000000 -1.745688
83.020000 -2.021036
83.040000 -2.274385
83.060000 -2.481817
83.080000 -2.572628
83.100000 -2.790773
83.120000 -3.068824
83.140000 -3.317860
83.160000 -3.716003
83.180000 -4.153917
83.200000 -4.596493
83.220000 -5.070199
83.240000 -5.486813
83.260000 -5.854625
83.280000 -6.264658
83.300000 -6.611857
83.320000 -7.030502
83.340000 -7.473891
83.360000 -7.935652
83.380000 -8.427198
83.400000 -8.914445
83.420000 -9.439585
83.440000 -9.887581
83.460000 -10.139390
83.480000 -10.181230
83.500000 -10.263380
83.520000 -10.420450
83.540000 -10.393840
83.560000 -10.342260
83.580000 -10.477820
83.600000 -10.634660
83.620000 -10.521540
83.640000 -10.035670
83.660000 -9.729763
83.680000 -9.455969
83.700000 -8.912232
83.720000 -8.162800
83.740000 -7.631583
83.760000 -7.255172
83.780000 -6.859801
83.800000 -6.589242
83.820000 -6.228263
83.840000 -5.806692
83.860000 -5.400314
83.880000 -4.948398
83.900000 -4.402434
83.920000 -3.693290
83.940000 -3.165279
83.960000 -2.834393
83.980000 -2.403580
84.000000 -2.037000
84.020000 -1.863722
84.040000 -1.754902
84.060000 -1.433231
84.080000 -1.057394
84.100000 -0.781136
84.120000 -0.503617
84.140000 -0.046925
84.160000 0.275908
84.180000 0.474056
84.200000 0.692214
84.220000 0.981272
84.240000 1.196266
84.260000 1.429604
84.280000 1.830646
84.300000 2.146436
84.320000 2.489546
84.340000 2.902016
84.360000 3.255545
84.380000 3.474319
84.400000 3.723397
84.420000 4.066508
84.440000 4.372131
84.460000 4.649916
84.480000 5.046113
84.500000 5.628219
84.520000 6.072448
84.540000 6.419311
84.560000 6.872068
84.580000 7.258337
84.600000 7.569408
84.620000 7.792775
84.640000 8.147957
84.660000 8.543272
84.680000 8.855435
84.700000 9.225236
84.720000 9.611476
84.740000 9.891908
84.760000 10.066110
84.780000 10.248310
84.800000 10.363770
84.820000 10.412830
84.840000 10.500410
84.860000 10.556210
84.880000 10.567860
84.900000 10.499700
84.920000 10.398830
84.940000 10.202310
84.960000 9.841748
84.980000 9.410696
85.000000 9.080259
85.020000 8.766037
85.040000 8.353890
85.060000 8.046306
85.080000 7.926059
85.100000 7.749225
85.120000 7.447410
85.140000 7.160789
85.160000 6.928796
85.180000 6.556740
85.200000 6.092431
85.220000 5.599078
85.240000 5.217850
85.260000 4.789291
85.280000 4.253929
85.300000 3.854847
85.320000 3.405367
85.340000 2.850259
85.360000 2.282661
85.380000 1.727525
85.400000 1.213728
85.420000 0.740288
85.440000 0.336641
85.460000 0.090070
85.480000 -0.132304
85.500000 -0.330732
85.520000 -0.448724
85.540000 -0.648986
85.560000 -0.949092
85.580000 -1.244549
85.600000 -1.491499
85.620000 -1.745226
85.640000 -2.080802
85.660000 -2.270408
85.680000 -2.375699
85.700000 -2.554984
85.720000 -2.824143
85.740000 -3.127288
85.760000 -3.405689
85.780000 -3.826056
85.800000 -4.362301
85.820000 -4.802426
85.840000 -5.203049
85.860000 -5.645541
85.880000 -6.032734
85.900000 -6.405462
85.920000 -6.788580
85.940000 -7.205012
85.960000 -7.702986
85.980000 -8.183651
86.000000 -8.654963
86.020000 -9.206471
86.040000 -9.719162
86.060000 -10.065300
86.080000 -10.200150
86.100000 -10.292630
86.120000 -10.395340
86.140000 -10.483280
86.160000 -10.457140
86.180000 -10.474900
86.200000 -10.655580
86.220000 -10.694940
86.240000 -10.406870
86.260000 -9.986711
86.280000 -9.695847
86.300000 -9.291500
86.320000 -8.668966
86.340000 -8.023873
86.360000 -7.448461
86.380000 -7.110811
86.400000 -6.789518
86.420000 -6.424968
86.440000 -6.043251
86.460000 -5.544227
86.480000 -5.136057
86.500000 -4.728055
86.520000 -3.967602
86.540000 -3.306531
86.560000 -2.936324
86.580000 -2.515243
86.600000 -2.109523
86.620000 -1.761567
86.640000 -1.649162
86.660000 -1.498430
86.680000 -1.091170
86.700000 -0.737165
86.720000 -0.479615
86.740000 -0.167970
86.760000 0.252873
86.780000 0.534635
86.800000 0.694035
86.820000 0.964412
86.840000 1.179994
86.860000 1.361015
86.880000 1.753684
86.900000 2.042307
86.920000 2.317613
86.940000 2.759881
86.960000 3.095150
86.980000 3.438022
87.000000 3.570172
87.020000 3.839737
87.040000 4.275102
87.060000 4.471219
87.080000 4.790272
87.100000 5.277169
87.120000 5.809212
87.140000 6.235475
87.160000 6.543087
87.180000 6.998952
87.200000 7.379718
87.220000 7.632451
87.240000 7.938956
87.260000 8.264269
87.280000 8.658869
87.300000 9.008436
87.320000 9.338229
87.340000 9.699334
87.360000 9.888337
87.380000 10.088560
87.400000 10.312010
87.420000 10.298940
87.440000 10.363210
87.460000 10.474380
87.480000 10.477010
87.500000 10.478790
87.520000 10.310130
87.540000 10.172260
87.560000 10.003460
87.580000 9.547271
87.600000 9.162094
87.620000 8.859034
87.640000 8.576572
87.660000 8.223617
87.680000 7.942359
87.700000 7.805266
87.720000 7.610535
87.740000 7.342455
87.760000 7.001025
87.780000 6.698300
87.800000 6.331048
87.820000 5.866108
87.840000 5.428811
87.860000 4.998053
87.880000 4.521239
87.900000 4.115813
87.920000 3.682969
87.940000 3.134556
87.960000 2.570934
87.980000 2.053496
88.000000 1.561291
88.020000 1.024290
88.040000 0.553875
88.060000 0.281174
88.080000 0.091162
88.100000 -0.119561
88.120000 -0.413267
88.140000 -0.544815
88.160000 -0.688307
88.180000 -1.098298
88.200000 -1.400351
88.220000 -1.643687
88.240000 -1.914260
88.260000 -2.148480
88.280000 -2.354512
88.300000 -2.511924
88.320000 -2.660976
88.340000 -3.001103
88.360000 -3.269758
88.380000 -3.592087
88.400000 -4.121807
88.420000 -4.564621
88.440000 -4.944925
88.460000 -5.347872
88.480000 -5.806370
88.500000 -6.232282
88.520000 -6.504844
88.540000 -6.912174
88.560000 -7.484071
88.580000 -7.971360
88.600000 -8.373341
88.620000 -8.862688
88.640000 -9.491790
88.660000 -9.969977
88.680000 -10.139680
88.700000 -10.230590
88.720000 -10.414790
88.740000 -10.543480
88.760000 -10.547840
88.780000 -10.540250
88.800000 -10.688040
88.820000 -10.861370
88.840000 -10.666850
88.860000 -10.246820
88.880000 -9.966658
88.900000 -9.602878
88.920000 -9.076884
88.940000 -8.391937
88.960000 -7.728920
88.980000 -7.328774
89.000000 -6.992931
89.020000 -6.605318
89.040000 -6.241118
89.060000 -5.753339
89.080000 -5.323282
89.100000 -4.908768
89.120000 -4.244602
89.140000 -3.599537
89.160000 -3.062354
89.180000 -2.641455
89.200000 -2.227487
89.220000 -1.836107
89.240000 -1.642875
89.260000 -1.480772
89.280000 -1.186869
89.300000 -0.811607
89.320000 -0.530139
89.340000 -0.234990
89.360000 0.174230
89.380000 0.499444
89.400000 0.692481
89.420000 0.912837
89.440000 1.161299
89.460000 1.358943
89.480000 1.608707
89.500000 1.925253
89.520000 2.237724
89.540000 2.605060
89.560000 2.936128
89.580000 3.293998
89.600000 3.527504
89.620000 3.762298
89.640000 4.071801
89.660000 4.348171
89.680000 4.647143
89.700000 5.022685
89.720000 5.521779
89.740000 5.962955
89.760000 6.339996
89.780000 6.760643
89.800000 7.140078
89.820000 7.452171
89.840000 7.725209
89.860000 8.043618
89.880000 8.417605
89.900000 8.759372
89.920000 9.115183
89.940000 9.502950
89.960000 9.784586
89.980000 9.991416
90.000000 10.188360
90.020000 10.305190
90.040000 10.380440
90.060000 10.464620
90.080000 10.487700
90.100000 10.491500
90.120000 10.449160
90.140000 10.317950
90.160000 10.106660
90.180000 9.800158
90.200000 9.386624
90.220000 9.032185
90.240000 8.727262
90.260000 8.322957
90.280000 8.068306
90.300000 7.890925
90.320000 7.692959
90.340000 7.468219
90.360000 7.175493
90.380000 6.883817
90.400000 6.551223
90.420000 6.114864
90.440000 5.665608
90.460000 5.231686
90.480000 4.822465
90.500000 4.366796
90.520000 3.925144
90.540000 3.483421
90.560000 2.932193
90.580000 2.402319
90.600000 1.895594
90.620000 1.291124
90.640000 0.860423
90.660000 0.480316
90.680000 0.180951
90.700000 0.000238
90.720000 -0.255912
90.740000 -0.424358
90.760000 -0.585411
90.780000 -0.917669
90.800000 -1.216851
90.820000 -1.506160
90.840000 -1.813492
90.860000 -2.044505
90.880000 -2.311676
90.900000 -2.494938
90.920000 -2.644704
90.940000 -2.918904
90.960000 -3.183441
90.980000 -3.524885
91.000000 -3.965081
91.020000 -4.402434
91.040000 -4.864139
91.060000 -5.291718
91.080000 -5.725010
91.100000 -6.118211
91.120000 -6.494803
91.140000 -6.871592
91.160000 -7.312908
91.180000 -7.823807
91.200000 -8.292639
91.220000 -8.776148
91.240000 -9.304481
91.260000 -9.885788
91.280000 -10.217930
91.300000 -10.289370
91.320000 -10.377380
91.340000 -10.531270
91.360000 -10.584330
91.380000 -10.496490
91.400000 -10.594470
91.420000 -10.844080
91.440000 -10.725850
91.460000 -10.298340
91.480000 -10.058450
91.500000 -9.799710
91.520000 -9.239225
91.540000 -8.522407
91.560000 -7.925121
91.580000 -7.470222
91.600000 -6.997762
91.620000 -6.647468
91.640000 -6.435373
91.660000 -5.910793
91.680000 -5.412875
91.700000 -5.090868
91.720000 -4.558516
91.740000 -3.772423
91.760000 -3.157171
91.780000 -2.778940
91.800000 -2.348827
91.820000 -1.884867
91.840000 -1.673794
91.860000 -1.609477
91.880000 -1.324802
91.900000 -0.939528
91.920000 -0.712197
91.940000 -0.446063
91.960000 0.035765
91.980000 0.359886
92.000000 0.504233
92.020000 0.780057
92.040000 1.049482
92.060000 1.181268
92.080000 1.358172
92.100000 1.741039
92.120000 2.054126
92.140000 2.303764
92.160000 2.717899
92.180000 3.109405
92.200000 3.364547
92.220000 3.512226
92.240000 3.833856
92.260000 4.171407
92.280000 4.377522
92.300000 4.719569
92.320000 5.273360
92.340000 5.751295
92.360000 6.078301
92.380000 6.538424
92.400000 6.975399
92.420000 7.270534
92.440000 7.515999
92.460000 7.869094
92.480000 8.242101
92.500000 8.554824
92.520000 8.937410
92.540000 9.348395
92.560000 9.682670
92.580000 9.900632
92.600000 10.133760
92.620000 10.317290
92.640000 10.330870
92.660000 10.443020
92.680000 10.589560
92.700000 10.599890
92.720000 10.553590
92.740000 10.485830
92.760000 10.408450
92.780000 10.074060
92.800000 9.613605
92.820000 9.270004
92.840000 8.972839
92.860000 8.574695
92.880000 8.199657
92.900000 8.007237
92.920000 7.882145
92.940000 7.602105
92.960000 7.321968
92.980000 7.105280
93.000000 6.721364
93.020000 6.329620
93.040000 5.881498
93.060000 5.408240
93.080000 5.033258
93.100000 4.499450
93.120000 4.118880
93.140000 3.724489
93.160000 3.107067
93.180000 2.597218
93.200000 2.102591
93.220000 1.514660
93.240000 0.965994
93.260000 0.562025
93.280000 0.266680
93.300000 0.041450
93.320000 -0.211297
93.340000 -0.372097
93.360000 -0.489278
93.380000 -0.792520
93.400000 -1.132648
93.420000 -1.401723
93.440000 -1.647874
93.460000 -1.965148
93.480000 -2.248913
93.500000 -2.347552
93.520000 -2.523799
93.540000 -2.770678
93.560000 -3.041797
93.580000 -3.338136
93.600000 -3.707853
93.620000 -4.249700
93.640000 -4.697415
93.660000 -5.112727
93.680000 -5.558468
93.700000 -5.994743
93.720000 -6.356534
93.740000 -6.725369
93.760000 -7.184525
93.780000 -7.657237
93.800000 -8.148657
93.820000 -8.639111
93.840000 -9.175048
93.860000 -9.776982
93.880000 -10.170200
93.900000 -10.312410
93.920000 -10.415700
93.940000 -10.493230
93.960000 -10.565480
93.980000 -10.548470
94.000000 -10.555090
94.020000 -10.729370
94.040000 -10.741770
94.060000 -10.438940
94.080000 -10.110070
94.100000 -9.819160
94.120000 -9.387899
94.140000 -8.733003
94.160000 -8.071218
94.180000 -7.571354
94.200000 -7.121944
94.220000 -6.771468
94.240000 -6.517853
94.260000 -6.103773
94.280000 -5.620181
94.300000 -5.205065
94.320000 -4.758232
94.340000 -4.098785
94.360000 -3.351174
94.380000 -2.934209
94.400000 -2.504726
94.420000 -2.079164
94.440000 -1.776971
94.460000 -1.624587
94.480000 -1.443313
94.500000 -1.122020
94.520000 -0.808050
94.540000 -0.527493
94.560000 -0.177017
94.580000 0.204407
94.600000 0.430912
94.620000 0.619579
94.640000 0.892169
94.660000 1.050238
94.680000 1.188830
94.700000 1.540902
94.720000 1.859507
94.740000 2.108067
94.760000 2.515663
94.780000 2.868015
94.800000 3.188342
94.820000 3.402202
94.840000 3.636436
94.860000 4.018070
94.880000 4.249406
94.900000 4.550814
94.920000 5.057610
94.940000 5.537911
94.960000 5.966974
94.980000 6.377861
95.000000 6.796254
95.020000 7.159655
95.040000 7.411506
95.060000 7.731875
95.080000 8.099239
95.100000 8.430082
95.120000 8.814559
95.140000 9.232041
95.160000 9.594238
95.180000 9.814609
95.200000 10.063170
95.220000 10.276830
95.240000 10.340280
95.260000 10.405150
95.280000 10.555360
95.300000 10.627000
95.320000 10.612480
95.340000 10.540840
95.360000 10.463810
95.380000 10.294990
95.400000 9.831343
95.420000 9.440131
95.440000 9.142518
95.460000 8.769734
95.480000 8.404540
95.500000 8.124473
95.520000 7.963518
95.540000 7.773787
95.560000 7.506715
95.580000 7.229686
95.600000 6.918853
95.620000 6.542317
95.640000 6.083874
95.660000 5.684540
95.680000 5.212109
95.700000 4.735770
95.720000 4.340049
95.740000 3.897235
95.760000 3.394248
95.780000 2.818135
95.800000 2.255690
95.820000 1.750463
95.840000 1.138950
95.860000 0.646395
95.880000 0.318633
95.900000 0.031101
95.920000 -0.186105
95.940000 -0.403031
95.960000 -0.595227
95.980000 -0.774582
96.000000 -1.117413
96.020000 -1.412295
96.040000 -1.655002
96.060000 -1.971898
96.080000 -2.205488
96.100000 -2.368823
96.120000 -2.542367
96.140000 -2.714160
96.160000 -2.981541
96.180000 -3.217595
96.200000 -3.562652
96.220000 -4.057783
96.240000 -4.473585
96.260000 -4.910322
96.280000 -5.340548
96.300000 -5.758198
96.320000 -6.154493
96.340000 -6.494887
96.360000 -6.930308
96.380000 -7.407711
96.400000 -7.881010
96.420000 -8.361606
96.440000 -8.885122
96.460000 -9.455801
96.480000 -9.927981
96.500000 -10.162590
96.520000 -10.227740
96.540000 -10.336560
96.560000 -10.458720
96.580000 -10.442380
96.600000 -10.413970
96.620000 -10.549870
96.640000 -10.708980
96.660000 -10.571160
96.680000 -10.134290
96.700000 -9.890199
96.720000 -9.590808
96.740000 -9.005985
96.760000 -8.343850
96.780000 -7.797466
96.800000 -7.355170
96.820000 -6.999751
96.840000 -6.695177
96.860000 -6.418709
96.880000 -5.934108
96.900000 -5.462041
96.920000 -5.094117
96.940000 -4.506381
96.960000 -3.788653
96.980000 -3.209670
97.000000 -2.845400
97.020000 -2.448657
97.040000 -2.010953
97.060000 -1.840224
97.080000 -1.719865
97.100000 -1.374332
97.120000 -1.039204
97.140000 -0.731536
97.160000 -0.409164
97.180000 -0.001106
97.200000 0.315524
97.220000 0.515072
97.240000 0.758856
97.260000 1.011029
97.280000 1.143193
97.300000 1.409733
97.320000 1.793621
97.340000 2.088686
97.360000 2.379438
97.380000 2.795898
97.400000 3.179268
97.420000 3.360668
97.440000 3.559236
97.460000 3.917358
97.480000 4.196431
97.500000 4.450130
97.520000 4.810450
97.540000 5.384616
97.560000 5.882618
97.580000 6.181590
97.600000 6.647902
97.620000 7.064166
97.640000 7.341027
97.660000 7.624189
97.680000 7.961810
97.700000 8.341637
97.720000 8.702574
97.740000 9.074391
97.760000 9.493288
97.780000 9.791532
97.800000 9.959432
97.820000 10.219960
97.840000 10.367350
97.860000 10.363860
97.880000 10.492680
97.900000 10.624960
97.920000 10.647320
97.940000 10.618190
97.960000 10.549300
97.980000 10.422060
98.000000 10.116170
98.020000 9.634134
98.040000 9.280269
98.060000 8.999403
98.080000 8.559642
98.100000 8.219990
98.120000 8.064777
98.140000 7.877860
98.160000 7.621430
98.180000 7.305402
98.200000 7.045752
98.220000 6.695107
98.240000 6.220085
98.260000 5.765634
98.280000 5.330087
98.300000 4.880061
98.320000 4.390671
98.340000 3.948151
98.360000 3.528190
98.380000 2.917097
98.400000 2.337652
98.420000 1.821810
98.440000 1.221654
98.460000 0.733790
98.480000 0.325788
98.500000 0.009424
98.520000 -0.134936
98.540000 -0.387515
98.560000 -0.572290
98.580000 -0.672330
98.600000 -0.997600
98.620000 -1.283493
98.640000 -1.529966
98.660000 -1.816167
98.680000 -2.063550
98.700000 -2.246182
98.720000 -2.376189
98.740000 -2.524205
98.760000 -2.737840
98.780000 -3.002434
98.800000 -3.325365
98.820000 -3.722683
98.840000 -4.215069
98.860000 -4.666944
98.880000 -5.068911
98.900000 -5.518615
98.920000 -5.915232
98.940000 -6.252573
98.960000 -6.669789
98.980000 -7.107745
99.000000 -7.611082
99.020000 -8.093932
99.040000 -8.589301
99.060000 -9.161128
99.080000 -9.670529
99.100000 -10.084520
99.120000 -10.180450
99.140000 -10.260560
99.160000 -10.422030
99.180000 -10.487630
99.200000 -10.497300
99.220000 -10.501390
99.240000 -10.718460
99.260000 -10.837920
99.280000 -10.431880
99.300000 -10.065820
99.320000 -9.873031
99.340000 -9.418468
99.360000 -8.780559
99.380000 -8.108327
99.400000 -7.619372
99.420000 -7.249361
99.440000 -6.833797
99.460000 -6.539656
99.480000 -6.194921
99.500000 -5.636187
99.520000 -5.216576
99.540000 -4.755207
99.560000 -4.097385
99.580000 -3.409162
99.600000 -2.971276
99.620000 -2.620072
99.640000 -2.147556
99.660000 -1.840042
99.680000 -1.740324
99.700000 -1.508429
99.720000 -1.128951
99.740000 -0.800615
99.760000 -0.578437
99.780000 -0.199114
99.800000 0.215806
99.820000 0.410929
99.840000 0.585831
99.860000 0.866780
99.880000 1.092571
99.900000 1.249170
99.920000 1.589536
99.940000 1.947434
99.960000 2.231450
99.980000 2.587444
100.000000 2.973601
100.020000 3.306335
100.040000 3.477918
100.060000 3.736336
100.080000 4.157291
100.100000 4.424476
100.120000 4.668512
100.140000 5.228871
100.160000 5.738734
100.180000 6.100132
100.200000 6.504088
100.220000 6.926541
100.240000 7.314098
100.260000 7.539973
100.280000 7.803894
100.300000 8.260726
100.320000 8.591065
100.340000 8.911224
100.360000 9.325094
100.380000 9.693018
100.400000 9.919943
100.420000 10.105390
100.440000 10.308130
100.460000 10.431360
100.480000 10.483840
100.500000 10.584420
100.520000 10.675280
100.540000 10.638710
100.560000 10.563150
100.580000 10.435030
100.600000 10.191080
100.620000 9.756061
100.640000 9.348633
100.660000 9.064967
100.680000 8.690615
100.700000 8.295510
100.720000 8.092335
100.740000 7.906651
100.760000 7.702636
100.780000 7.369762
100.800000 7.088812
100.820000 6.840182
100.840000 6.379388
100.860000 5.902111
100.880000 5.505591
100.900000 5.088081
100.920000 4.588581
100.940000 4.101264
100.960000 3.676388
100.980000 3.163276
101.000000 2.588438
101.020000 1.988926
101.040000 1.497688
101.060000 0.971974
101.080000 0.488269
101.100000 0.221995
101.120000 -0.003921
101.140000 -0.232400
101.160000 -0.411671
101.180000 -0.556914
101.200000 -0.772566
101.220000 -1.093691
101.240000 -1.385171
101.260000 -1.613384
101.280000 -1.845434
101.300000 -2.133329
101.320000 -2.270814
101.340000 -2.387896
101.360000 -2.571088
101.380000 -2.850637
101.400000 -3.147481
101.420000 -3.482077
101.440000 -3.953738
101.460000 -4.427570
101.480000 -4.855513
101.500000 -5.282056
101.520000 -5.696947
101.540000 -6.086941
101.560000 -6.463184
101.580000 -6.883467
101.600000 -7.366667
101.620000 -7.875241
101.640000 -8.341469
101.660000 -8.860364
101.680000 -9.458084
101.700000 -9.926454
101.720000 -10.182000
101.740000 -10.294240
101.760000 -10.429010
101.780000 -10.562090
101.800000 -10.555950
101.820000 -10.549090
101.840000 -10.687660
101.860000 -10.805600
101.880000 -10.681150
101.900000 -10.305300
101.920000 -9.997563
101.940000 -9.705999
101.960000 -9.135824
101.980000 -8.468340
102.000000 -7.952652
102.020000 -7.442551
102.040000 -7.060315
102.060000 -6.769017
102.080000 -6.420683
102.100000 -5.962927
102.120000 -5.491560
102.140000 -5.079077
102.160000 -4.528493
102.180000 -3.795094
102.200000 -3.213226
102.220000 -2.811414
102.240000 -2.365575
102.260000 -1.938668
102.280000 -1.704364
102.300000 -1.539180
102.320000 -1.224832
102.340000 -0.843129
102.360000 -0.576183
102.380000 -0.251879
102.400000 0.138087
102.420000 0.449788
102.440000 0.669529
102.460000 0.891748
102.480000 1.185581
102.500000 1.292693
102.520000 1.534055
102.540000 1.928740
102.560000 2.176319
102.580000 2.494028
102.600000 2.842333
102.620000 3.238783
102.640000 3.491431
102.660000 3.668154
102.680000 3.997331
102.700000 4.333440
102.720000 4.594729
102.740000 4.932392
102.760000 5.449732
102.780000 5.918901
102.800000 6.288590
102.820000 6.689702
102.840000 7.106960
102.860000 7.392195
102.880000 7.674377
102.900000 8.021478
102.920000 8.337702
102.940000 8.729671
102.960000 9.070204
102.980000 9.478038
103.000000 9.822297
103.020000 9.967218
103.040000 10.258110
103.060000 10.423270
103.080000 10.474000
103.100000 10.605410
103.120000 10.639320
103.140000 10.649910
103.160000 10.635330
103.180000 10.456620
103.200000 10.271130
103.220000 9.976768
103.240000 9.515693
103.260000 9.181097
103.280000 8.848643
103.300000 8.433835
103.320000 8.143938
103.340000 7.932473
103.360000 7.704092
103.380000 7.463808
103.400000 7.173490
103.420000 6.863792
103.440000 6.535329
103.460000 6.086857
103.480000 5.629437
103.500000 5.242944
103.520000 4.740434
103.540000 4.277860
103.560000 3.891409
103.580000 3.357937
103.600000 2.868898
103.620000 2.317459
103.640000 1.785905
103.660000 1.296740
103.680000 0.792843
103.700000 0.430239
103.720000 0.183976
103.740000 -0.028609
103.760000 -0.221827
103.780000 -0.416628
103.800000 -0.567935
103.820000 -0.855017
103.840000 -1.154844
103.860000 -1.418695
103.880000 -1.703201
103.900000 -1.964490
103.920000 -2.143649
103.940000 -2.366793
103.960000 -2.537480
103.980000 -2.720574
104.000000 -3.037414
104.020000 -3.376198
104.040000 -3.797951
104.060000 -4.253312
104.080000 -4.670291
104.100000 -5.133844
104.120000 -5.575020
104.140000 -5.940550
104.160000 -6.311751
104.180000 -6.734947
104.200000 -7.171362
104.220000 -7.665695
104.240000 -8.157073
104.260000 -8.643816
104.280000 -9.220573
104.300000 -9.725842
104.320000 -10.168810
104.340000 -10.313300
104.360000 -10.357520
104.380000 -10.577050
104.400000 -10.631610
104.420000 -10.604720
104.440000 -10.622520
104.460000 -10.804490
104.480000 -10.878990
104.500000 -10.463190
104.520000 -10.105910
104.540000 -9.928317
104.560000 -9.480489
104.580000 -8.762704
104.600000 -8.134023
104.620000 -7.641679
104.640000 -7.179596
104.660000 -6.775935
104.680000 -6.491835
104.700000 -6.107568
104.720000 -5.549674
104.740000 -5.142400
104.760000 -4.711839
104.780000 -4.015955
104.800000 -3.321038
104.820000 -2.865677
104.840000 -2.505972
104.860000 -2.001571
104.880000 -1.639458
104.900000 -1.586973
104.920000 -1.316148
104.940000 -0.900837
104.960000 -0.639436
104.980000 -0.369311
105.000000 0.014844
105.020000 0.404543
105.040000 0.628037
105.060000 0.806622
105.080000 1.080290
105.100000 1.300003
105.120000 1.409523
105.140000 1.736277
105.160000 2.089302
105.180000 2.295852
105.200000 2.648135
105.220000 3.064749
105.240000 3.334005
105.260000 3.505239
105.280000 3.795696
105.300000 4.144800
105.320000 4.399256
105.340000 4.643362
105.360000 5.159470
105.380000 5.693139
105.400000 6.006996
105.420000 6.423484
105.440000 6.902343
105.460000 7.247372
105.480000 7.469228
105.500000 7.797424
105.520000 8.227216
105.540000 8.516371
105.560000 8.854118
105.580000 9.275788
105.600000 9.639875
105.620000 9.874964
105.640000 10.067930
105.660000 10.299840
105.680000 10.403480
105.700000 10.425270
105.720000 10.540880
105.740000 10.643430
105.760000 10.554040
105.780000 10.483900
105.800000 10.391900
105.820000 10.126100
105.840000 9.725114
105.860000 9.288097
105.880000 9.043304
105.900000 8.701300
105.920000 8.254130
105.940000 8.023579
105.960000 7.897913
105.980000 7.693519
106.000000 7.332835
106.020000 7.061842
106.040000 6.791745
106.060000 6.377777
106.080000 5.931448
106.100000 5.438277
106.120000 5.056812
106.140000 4.616280
106.160000 4.095424
106.180000 3.690979
106.200000 3.192417
106.220000 2.610746
106.240000 2.122826
106.260000 1.562076
106.280000 0.990696
106.300000 0.647376
106.320000 0.282518
106.340000 0.048424
106.360000 -0.150438
106.380000 -0.387753
106.400000 -0.474378
106.420000 -0.712925
106.440000 -1.051093
106.460000 -1.313684
106.480000 -1.548996
106.500000 -1.792907
106.520000 -2.130458
106.540000 -2.272172
106.560000 -2.415763
106.580000 -2.656257
106.600000 -2.906945
106.620000 -3.234792
106.640000 -3.578238
106.660000 -4.024749
106.680000 -4.549050
106.700000 -4.967148
106.720000 -5.367322
106.740000 -5.867312
106.760000 -6.237519
106.780000 -6.625959
106.800000 -7.070482
106.820000 -7.534693
106.840000 -8.081245
106.860000 -8.537936
106.880000 -9.053358
106.900000 -9.626390
106.920000 -10.127810
106.940000 -10.390550
106.960000 -10.455000
106.980000 -10.587410
107.000000 -10.671080
107.020000 -10.699120
107.040000 -10.658260
107.060000 -10.718860
107.080000 -10.882900
107.100000 -10.695490
107.120000 -10.283610
107.140000 -9.958648
107.160000 -9.607822
107.180000 -9.030001
107.200000 -8.342701
107.220000 -7.715197
107.240000 -7.234097
107.260000 -6.802289
107.280000 -6.429492
107.300000 -6.123154
107.320000 -5.612227
107.340000 -5.131492
107.360000 -4.756761
107.380000 -4.164097
107.400000 -3.481965
107.420000 -2.879218
107.440000 -2.456386
107.460000 -2.068353
107.480000 -1.661401
107.500000 -1.425879
107.520000 -1.303699
107.540000 -1.032328
107.560000 -0.685899
107.580000 -0.453527
107.600000 -0.140650
107.620000 0.219895
107.640000 0.489600
107.660000 0.666910
107.680000 0.891510
107.700000 1.117805
107.720000 1.212285
107.740000 1.454264
107.760000 1.789420
107.780000 2.046186
107.800000 2.342455
107.820000 2.680678
107.840000 3.073935
107.860000 3.307357
107.880000 3.470510
107.900000 3.812837
107.920000 4.148917
107.940000 4.394802
107.960000 4.802987
107.980000 5.316476
108.000000 5.779567
108.020000 6.208154
108.040000 6.603371
108.060000 7.066351
108.080000 7.357397
108.100000 7.640573
108.120000 8.023719
108.140000 8.359029
108.160000 8.722585
108.180000 9.141762
108.200000 9.554903
108.220000 9.837113
108.240000 10.065970
108.260000 10.321380
108.280000 10.477390
108.300000 10.509360
108.320000 10.618960
108.340000 10.700670
108.360000 10.721780
108.380000 10.640360
108.400000 10.532900
108.420000 10.425690
108.440000 10.059910
108.460000 9.596647
108.480000 9.267974
108.500000 8.944720
108.520000 8.570858
108.540000 8.200441
108.560000 8.014827
108.580000 7.876081
108.600000 7.575275
108.620000 7.274637
108.640000 6.976953
108.660000 6.612726
108.680000 6.210101
108.700000 5.709242
108.720000 5.248420
108.740000 4.815730
108.760000 4.309816
108.780000 3.928350
108.800000 3.406291
108.820000 2.836480
108.840000 2.335565
108.860000 1.761764
108.880000 1.216346
108.900000 0.698908
108.920000 0.336823
108.940000 0.108974
108.960000 -0.159652
108.980000 -0.358402
109.000000 -0.489978
109.020000 -0.653565
109.040000 -0.921296
109.060000 -1.235587
109.080000 -1.523972
109.100000 -1.764648
109.120000 -2.055428
109.140000 -2.251517
109.160000 -2.399981
109.180000 -2.585792
109.200000 -2.799231
109.220000 -3.084115
109.240000 -3.403252
109.260000 -3.854020
109.280000 -4.333076
109.300000 -4.786505
109.320000 -5.230663
109.340000 -5.686067
109.360000 -6.122188
109.380000 -6.445960
109.400000 -6.871424
109.420000 -7.362690
109.440000 -7.850973
109.460000 -8.345544
109.480000 -8.833730
109.500000 -9.399283
109.520000 -10.005080
109.540000 -10.295540
109.560000 -10.398300
109.580000 -10.498970
109.600000 -10.574780
109.620000 -10.668040
109.640000 -10.596850
109.660000 -10.617160
109.680000 -10.838650
109.700000 -10.760210
109.720000 -10.397810
109.740000 -10.059070
109.760000 -9.743192
109.780000 -9.253298
109.800000 -8.526944
109.820000 -7.875801
109.840000 -7.327359
109.860000 -6.918797
109.880000 -6.596762
109.900000 -6.247602
109.920000 -5.795895
109.940000 -5.340954
109.960000 -4.931846
109.980000 -4.439963
110.000000 -3.688515
110.020000 -3.064063
110.040000 -2.703266
110.060000 -2.234181
110.080000 -1.826501
110.100000 -1.618663
110.120000 -1.458843
110.140000 -1.253581
110.160000 -0.905038
110.180000 -0.618599
110.200000 -0.357464
110.220000 0.014269
110.240000 0.361917
110.260000 0.537085
110.280000 0.704285
110.300000 0.967352
110.320000 1.034891
110.340000 1.221542
110.360000 1.580938
110.380000 1.800833
110.400000 2.094007
110.420000 2.501673
110.440000 2.837096
110.460000 3.113060
110.480000 3.290581
110.500000 3.615067
110.520000 3.964437
110.540000 4.210042
110.560000 4.587937
110.580000 5.118720
110.600000 5.650680
110.620000 6.057688
110.640000 6.478209
110.660000 6.972360
110.680000 7.287128
110.700000 7.556454
110.720000 7.940063
110.740000 8.250489
110.760000 8.678656
110.780000 9.069042
110.800000 9.435776
110.820000 9.837575
110.840000 10.029290
110.860000 10.305600
110.880000 10.488510
110.900000 10.470060
110.920000 10.639550
110.940000 10.757780
110.960000 10.714230
110.980000 10.704220
111.000000 10.619440
111.020000 10.537810
111.040000 10.227150
111.060000 9.740265
111.080000 9.384384
111.100000 9.082779
111.120000 8.675155
111.140000 8.274183
111.160000 8.067115
111.180000 7.918259
111.200000 7.641945
111.220000 7.337064
111.240000 7.057445
111.260000 6.703187
111.280000 6.304091
111.300000 5.823286
111.320000 5.326572
111.340000 4.934464
111.360000 4.453379
111.380000 4.007007
111.400000 3.596583
111.420000 3.005318
111.440000 2.506056
111.460000 1.968621
111.480000 1.374108
111.500000 0.859078
111.520000 0.464016
111.540000 0.160002
111.560000 -0.078587
111.580000 -0.265336
111.600000 -0.425786
111.620000 -0.548288
111.640000 -0.828173
111.660000 -1.120199
111.680000 -1.345247
111.700000 -1.626897
111.720000 -1.926093
111.740000 -2.138692
111.760000 -2.269189
111.780000 -2.442929
111.800000 -2.681491
111.820000 -2.932907
111.840000 -3.235184
111.860000 -3.600419
111.880000 -4.141986
111.900000 -4.592992
111.920000 -5.005321
111.940000 -5.449550
111.960000 -5.855816
111.980000 -6.247784
112.000000 -6.658587
112.020000 -7.066449
112.040000 -7.545854
112.060000 -8.089745
112.080000 -8.570312
112.100000 -9.092148
112.120000 -9.690680
112.140000 -10.153290
112.160000 -10.318670
112.180000 -10.361990
112.200000 -10.466660
112.220000 -10.594080
112.240000 -10.593600
112.260000 -10.512550
112.280000 -10.675690
112.300000 -10.866070
112.320000 -10.493620
112.340000 -10.062340
112.360000 -9.858650
112.380000 -9.430721
112.400000 -8.757285
112.420000 -8.036140
112.440000 -7.488524
112.460000 -7.090745
112.480000 -6.657130
112.500000 -6.338904
112.520000 -6.074184
112.540000 -5.528207
112.560000 -5.084720
112.580000 -4.737717
112.600000 -4.079405
112.620000 -3.366451
112.640000 -2.891723
112.660000 -2.554606
112.680000 -2.138552
112.700000 -1.774128
112.720000 -1.670924
112.740000 -1.553155
112.760000 -1.214372
112.780000 -0.847638
112.800000 -0.658788
112.820000 -0.333742
112.840000 0.124252
112.860000 0.320719
112.880000 0.475806
112.900000 0.745063
112.920000 0.929558
112.940000 1.059957
112.960000 1.350989
112.980000 1.703664
113.000000 1.997958
113.020000 2.300515
113.040000 2.746718
113.060000 3.115973
113.080000 3.297177
113.100000 3.554670
113.120000 3.946261
113.140000 4.263493
113.160000 4.520385
113.180000 4.992550
113.200000 5.614146
113.220000 6.045995
113.240000 6.423344
113.260000 6.892737
113.280000 7.311452
113.300000 7.573693
113.320000 7.829520
113.340000 8.240589
113.360000 8.613345
113.380000 8.940953
113.400000 9.343340
113.420000 9.752938
113.440000 9.971377
113.460000 10.201210
113.480000 10.411530
113.500000 10.491040
113.520000 10.517720
113.540000 10.627590
113.560000 10.713470
113.580000 10.684150
113.600000 10.582740
113.620000 10.492500
113.640000 10.337470
113.660000 9.910280
113.680000 9.409324
113.700000 9.149029
113.720000 8.820174
113.740000 8.353218
113.760000 8.054638
113.780000 7.888362
113.800000 7.704484
113.820000 7.387756
113.840000 7.036804
113.860000 6.756736
113.880000 6.382720
113.900000 5.870757
113.920000 5.413561
113.940000 4.973141
113.960000 4.523479
113.980000 4.051174
114.000000 3.625948
114.020000 3.175683
114.040000 2.584335
114.060000 2.076391
114.080000 1.557412
114.100000 1.011995
114.120000 0.583478
114.140000 0.233968
114.160000 0.029337
114.180000 -0.148352
114.200000 -0.373386
114.220000 -0.455277
114.240000 -0.645387
114.260000 -0.970671
114.280000 -1.229131
114.300000 -1.479736
114.320000 -1.730760
114.340000 -1.996530
114.360000 -2.174849
114.380000 -2.288668
114.400000 -2.466301
114.420000 -2.741439
114.440000 -3.034613
114.460000 -3.369112
114.480000 -3.830817
114.500000 -4.337893
114.520000 -4.766634
114.540000 -5.202377
114.560000 -5.634016
114.580000 -6.008214
114.600000 -6.377959
114.620000 -6.805608
114.640000 -7.241925
114.660000 -7.754770
114.680000 -8.227734
114.700000 -8.763517
114.720000 -9.301260
114.740000 -9.815393
114.760000 -10.129080
114.780000 -10.175450
114.800000 -10.302150
114.820000 -10.403410
114.840000 -10.464350
114.860000 -10.458810
114.880000 -10.540220
114.900000 -10.768880
114.920000 -10.600670
114.940000 -10.190190
114.960000 -9.968044
114.980000 -9.640842
115.000000 -9.095144
115.020000 -8.400675
115.040000 -7.828582
115.060000 -7.381580
115.080000 -6.982611
115.100000 -6.668697
115.120000 -6.431592
115.140000 -5.922836
115.160000 -5.454731
115.180000 -5.095307
115.200000 -4.548153
115.220000 -3.822065
115.240000 -3.211056
115.260000 -2.898571
115.280000 -2.470880
115.300000 -2.035081
115.320000 -1.869211
115.340000 -1.736992
115.360000 -1.456364
115.380000 -1.079421
115.400000 -0.807434
115.420000 -0.532086
115.440000 -0.085224
115.460000 0.199870
115.480000 0.391408
115.500000 0.628079
115.520000 0.861445
115.540000 1.024136
115.560000 1.230070
115.580000 1.629138
115.600000 1.924721
115.620000 2.186178
115.640000 2.643415
115.660000 3.014813
115.680000 3.259494
115.700000 3.487258
115.720000 3.819880
115.740000 4.204847
115.760000 4.457874
115.780000 4.838975
115.800000 5.440882
115.820000 5.931882
115.840000 6.303153
115.860000 6.746192
115.880000 7.179246
115.900000 7.493635
115.920000 7.762192
115.940000 8.125425
115.960000 8.474627
115.980000 8.848391
116.000000 9.250820
116.020000 9.622735
116.040000 9.944112
116.060000 10.159970
116.080000 10.368270
116.100000 10.538840
116.120000 10.567670
116.140000 10.656030
116.160000 10.812670
116.180000 10.782190
116.200000 10.739970
116.220000 10.675310
116.240000 10.507080
116.260000 10.190120
116.280000 9.722467
116.300000 9.354067
116.320000 9.024707
116.340000 8.609746
116.360000 8.247227
116.380000 8.022220
116.400000 7.845960
116.420000 7.522048
116.440000 7.229616
116.460000 6.934579
116.480000 6.525317
116.500000 6.088986
116.520000 5.600772
116.540000 5.134698
116.560000 4.670263
116.580000 4.137435
116.600000 3.710598
116.620000 3.268904
116.640000 2.651467
116.660000 2.139616
116.680000 1.632316
116.700000 1.076215
116.720000 0.642110
116.740000 0.265322
116.760000 0.020501
116.780000 -0.138353
116.800000 -0.316280
116.820000 -0.494991
116.840000 -0.610183
116.860000 -0.859527
116.880000 -1.178187
116.900000 -1.406414
116.920000 -1.671638
116.940000 -1.930910
116.960000 -2.100057
116.980000 -2.311620
117.000000 -2.418941
117.020000 -2.642043
117.040000 -2.925695
117.060000 -3.253388
117.080000 -3.671207
117.100000 -4.122255
117.120000 -4.579255
117.140000 -5.014465
117.160000 -5.442464
117.180000 -5.818077
117.200000 -6.164240
117.220000 -6.568139
117.240000 -7.015238
117.260000 -7.455378
117.280000 -7.960200
117.300000 -8.442812
117.320000 -8.966173
117.340000 -9.560686
117.360000 -9.904581
117.380000 -10.050150
117.400000 -10.204530
117.420000 -10.256910
117.440000 -10.450280
117.460000 -10.381350
117.480000 -10.368550
117.500000 -10.674570
117.520000 -10.676330
117.540000 -10.357740
117.560000 -10.022040
117.580000 -9.796825
117.600000 -9.397421
117.620000 -8.734502
117.640000 -8.085796
117.660000 -7.641161
117.680000 -7.212952
117.700000 -6.826081
117.720000 -6.550915
117.740000 -6.211599
117.760000 -5.694595
117.780000 -5.265028
117.800000 -4.861535
117.820000 -4.171519
117.840000 -3.476882
117.860000 -3.071190
117.880000 -2.648331
117.900000 -2.231927
117.920000 -1.896224
117.940000 -1.766637
117.960000 -1.600949
117.980000 -1.180946
118.000000 -0.901509
118.020000 -0.657430
118.040000 -0.245507
118.060000 0.146895
118.080000 0.369605
118.100000 0.555527
118.120000 0.831604
118.140000 1.037355
118.160000 1.154844
118.180000 1.491092
118.200000 1.820116
118.220000 2.054546
118.240000 2.432987
118.260000 2.798979
118.280000 3.140507
118.300000 3.316865
118.320000 3.594678
118.340000 4.000034
118.360000 4.247683
118.380000 4.556387
118.400000 5.086387
118.420000 5.611317
118.440000 6.030326
118.460000 6.445469
118.480000 6.944339
118.500000 7.312740
118.520000 7.572558
118.540000 7.882565
118.560000 8.297443
118.580000 8.634350
118.600000 8.960082
118.620000 9.406117
118.640000 9.784824
118.660000 10.026490
118.680000 10.252280
118.700000 10.462690
118.720000 10.611160
118.740000 10.682290
118.760000 10.791740
118.780000 10.864160
118.800000 10.827230
118.820000 10.788890
118.840000 10.669400
118.860000 10.420510
118.880000 10.021000
118.900000 9.647087
118.920000 9.316888
118.940000 8.956889
118.960000 8.530249
118.980000 8.291001
119.000000 8.110862
119.020000 7.809831
119.040000 7.523351
119.060000 7.205054
119.080000 6.892373
119.100000 6.426789
119.120000 5.894297
119.140000 5.446777
119.160000 4.917114
119.180000 4.361040
119.200000 3.888749
119.220000 3.371815
119.240000 2.828330
119.260000 2.297574
119.280000 1.739022
119.300000 1.248722
119.320000 0.737039
119.340000 0.304419
119.360000 0.072103
119.380000 -0.230159
119.400000 -0.398970
119.420000 -0.572164
119.440000 -0.752149
119.460000 -0.917809
119.480000 -1.283100
119.500000 -1.524841
119.520000 -1.740800
119.540000 -2.023248
119.560000 -2.246672
119.580000 -2.397908
119.600000 -2.549607
119.620000 -2.732911
119.640000 -2.981779
119.660000 -3.273091
119.680000 -3.596807
119.700000 -4.009710
119.720000 -4.451208
119.740000 -4.826148
119.760000 -5.239121
119.780000 -5.625978
119.800000 -5.985319
119.820000 -6.341256
119.840000 -6.745380
119.860000 -7.199313
119.880000 -7.681435
119.900000 -8.101227
119.920000 -8.615067
119.940000 -9.162010
119.960000 -9.608438
119.980000 -9.888505
120.000000 -9.977132
120.020000 -10.093040
120.040000 -10.296690
120.060000 -10.282910
120.080000 -10.299210
120.100000 -10.437590
120.120000 -10.600730
120.140000 -10.546710
120.160000 -10.102800
120.180000 -9.833066
120.200000 -9.584870
120.220000 -9.047519
120.240000 -8.392273
120.260000 -7.849755
120.280000 -7.430256
120.300000 -7.053804
120.320000 -6.712332
120.340000 -6.417407
120.360000 -5.971694
120.380000 -5.476689
120.400000 -5.084916
120.420000 -4.543448
120.440000 -3.852536
120.460000 -3.262056
120.480000 -2.884805
120.500000 -2.493958
120.520000 -2.034297
120.540000 -1.807681
120.560000 -1.675237
120.580000 -1.373926
120.600000 -0.989198
120.620000 -0.655189
120.640000 -0.381746
120.660000 0.029883
120.680000 0.398312
120.700000 0.590368
120.720000 0.826465
120.740000 1.064438
120.760000 1.254211
120.780000 1.470283
120.800000 1.826179
120.820000 2.141745
120.840000 2.407207
120.860000 2.824507
120.880000 3.198999
120.900000 3.420392
120.920000 3.656433
120.940000 3.960334
120.960000 4.299720
120.980000 4.579325
121.000000 4.902691
121.020000 5.436303
121.040000 5.942567
121.060000 6.284641
121.080000 6.680544
121.100000 7.089302
121.120000 7.404910
121.140000 7.647420
121.160000 7.933369
121.180000 8.315955
121.200000 8.658029
121.220000 9.009514
121.240000 9.364233
121.260000 9.682936
121.280000 9.885550
121.300000 10.098540
121.320000 10.262180
121.340000 10.301340
121.360000 10.437940
121.380000 10.553200
121.400000 10.545160
121.420000 10.546430
121.440000 10.461210
121.460000 10.290720
121.480000 10.045410
121.500000 9.594868
121.520000 9.264277
121.540000 9.039593
121.560000 8.609017
121.580000 8.309009
121.600000 8.124655
121.620000 7.915851
121.640000 7.705618
121.660000 7.349107
121.680000 7.070118
121.700000 6.733113
121.720000 6.260975
121.740000 5.808862
121.760000 5.330003
121.780000 4.871799
121.800000 4.361698
121.820000 3.896675
121.840000 3.413236
121.860000 2.809243
121.880000 2.259681
121.900000 1.748054
121.920000 1.149060
121.940000 0.677721
121.960000 0.285837
121.980000 -0.015516
122.000000 -0.189186
122.020000 -0.467390
122.040000 -0.683168
122.060000 -0.799536
122.080000 -1.130842
122.100000 -1.453423
122.120000 -1.728099
122.140000 -1.978830
122.160000 -2.217125
122.180000 -2.442439
122.200000 -2.622158
122.220000 -2.771140
122.240000 -2.939909
122.260000 -3.226796
122.280000 -3.531481
122.300000 -3.890401
122.320000 -4.322979
122.340000 -4.681563
122.360000 -5.086975
122.380000 -5.512845
122.400000 -5.822908
122.420000 -6.173818
122.440000 -6.507868
122.460000 -6.957643
122.480000 -7.443335
122.500000 -7.805280
122.520000 -8.299235
122.540000 -8.852480
122.560000 -9.357357
122.580000 -9.767992
122.600000 -9.829971
122.620000 -9.973590
122.640000 -10.178950
122.660000 -10.186990
122.680000 -10.222070
122.700000 -10.270750
122.720000 -10.511110
122.740000 -10.634840
122.760000 -10.266360
122.780000 -9.974514
122.800000 -9.793128
122.820000 -9.392128
122.840000 -8.782211
122.860000 -8.119642
122.880000 -7.681505
122.900000 -7.346726
122.920000 -6.968873
122.940000 -6.704658
122.960000 -6.331720
122.980000 -5.877745
123.000000 -5.517802
123.020000 -4.981586
123.040000 -4.360102
123.060000 -3.691974
123.080000 -3.194966
123.100000 -2.839197
123.120000 -2.308329
123.140000 -2.010337
123.160000 -1.863106
123.180000 -1.560227
123.200000 -1.214736
123.220000 -0.841770
123.240000 -0.510871
123.260000 -0.124518
123.280000 0.314516
123.300000 0.605968
123.320000 0.811411
123.340000 1.094013
123.360000 1.330558
123.380000 1.495461
123.400000 1.847394
123.420000 2.218455
123.440000 2.494952
123.460000 2.916635
123.480000 3.319638
123.500000 3.599313
123.520000 3.845198
123.540000 4.093450
123.560000 4.412517
123.580000 4.690456
123.600000 4.957220
123.620000 5.426879
123.640000 5.936489
123.660000 6.300142
123.680000 6.629404
123.700000 7.067233
123.720000 7.333129
123.740000 7.532579
123.760000 7.775509
123.780000 8.060114
123.800000 8.392091
123.820000 8.680239
123.840000 8.992514
123.860000 9.361586
123.880000 9.574284
123.900000 9.729903
123.920000 9.907620
123.940000 9.952066
123.960000 10.019270
123.980000 10.163950
124.000000 10.197970
124.020000 10.211210
124.040000 10.209840
124.060000 10.123520
124.080000 9.946101
124.100000 9.569172
124.120000 9.197173
124.140000 8.937817
124.160000 8.631479
124.180000 8.254256
124.200000 8.013860
124.220000 7.933537
124.240000 7.735474
124.260000 7.467505
124.280000 7.208359
124.300000 6.925519
124.320000 6.593009
124.340000 6.162293
124.360000 5.673548
124.380000 5.334134
124.400000 4.887413
124.420000 4.399158
124.440000 4.022733
124.460000 3.459056
124.480000 2.924911
124.500000 2.404490
124.520000 1.771300
124.540000 1.222088
124.560000 0.793809
124.580000 0.407022
124.600000 0.127529
124.620000 -0.112349
124.640000 -0.342172
124.660000 -0.496377
124.680000 -0.788978
124.700000 -1.142185
124.720000 -1.430808
124.740000 -1.753796
124.760000 -2.046116
124.780000 -2.361864
124.800000 -2.532061
124.820000 -2.703224
124.840000 -2.925485
124.860000 -3.155925
124.880000 -3.464237
124.900000 -3.822205
124.920000 -4.257247
124.940000 -4.727452
124.960000 -5.128859
124.980000 -5.526344
125.000000 -5.953349
125.020000 -6.276855
125.040000 -6.642553
125.060000 -7.059489
125.080000 -7.458739
125.100000 -7.987870
125.120000 -8.460652
125.140000 -8.932145
125.160000 -9.511745
125.180000 -9.973071
125.200000 -10.177810
125.220000 -10.231110
125.240000 -10.287760
125.260000 -10.448980
125.280000 -10.442950
125.300000 -10.366930
125.320000 -10.549140
125.340000 -10.740570
125.360000 -10.537340
125.380000 -10.106440
125.400000 -9.839633
125.420000 -9.527848
125.440000 -8.906267
125.460000 -8.203984
125.480000 -7.621710
125.500000 -7.218063
125.520000 -6.815088
125.540000 -6.511509
125.560000 -6.239424
125.580000 -5.707744
125.600000 -5.275208
125.620000 -4.924466
125.640000 -4.276614
125.660000 -3.539393
125.680000 -3.026884
125.700000 -2.648807
125.720000 -2.249375
125.740000 -1.850881
125.760000 -1.688162
125.780000 -1.612516
125.800000 -1.231554
125.820000 -0.885167
125.840000 -0.636957
125.860000 -0.277183
125.880000 0.136995
125.900000 0.440966
125.920000 0.581686
125.940000 0.826535
125.960000 1.051289
125.980000 1.148570
126.000000 1.443033
126.020000 1.797654
126.040000 2.076587
126.060000 2.424991
126.080000 2.811330
126.100000 3.190429
126.120000 3.402006
126.140000 3.533805
126.160000 3.964647
126.180000 4.205281
126.200000 4.431799
126.220000 4.889499
126.240000 5.418561
126.260000 5.884214
126.280000 6.224384
126.300000 6.631924
126.320000 7.081404
126.340000 7.299367
126.360000 7.552926
126.380000 7.905558
126.400000 8.273469
126.420000 8.618064
126.440000 9.007931
126.460000 9.409814
126.480000 9.725646
126.500000 9.931089
126.520000 10.192000
126.540000 10.301480
126.560000 10.339260
126.580000 10.535180
126.600000 10.633480
126.620000 10.664660
126.640000 10.638540
126.660000 10.621470
126.680000 10.541080
126.700000 10.139320
126.720000 9.684546
126.740000 9.380015
126.760000 9.071003
126.780000 8.637682
126.800000 8.296700
126.820000 8.154034
126.840000 7.968476
126.860000 7.691237
126.880000 7.356318
126.900000 7.088770
126.920000 6.734765
126.940000 6.198590
126.960000 5.758464
126.980000 5.298622
127.000000 4.786897
127.020000 4.326830
127.040000 3.902710
127.060000 3.394598
127.080000 2.820992
127.100000 2.271486
127.120000 1.731936
127.140000 1.173258
127.160000 0.638736
127.180000 0.273094
127.200000 0.049866
127.220000 -0.189900
127.240000 -0.415760
127.260000 -0.548582
127.280000 -0.703123
127.300000 -1.030396
127.320000 -1.332448
127.340000 -1.609841
127.360000 -1.846232
127.380000 -2.118037
127.400000 -2.359679
127.420000 -2.423185
127.440000 -2.608799
127.460000 -2.865187
127.480000 -3.086944
127.500000 -3.424425
127.520000 -3.838365
127.540000 -4.310712
127.560000 -4.759338
127.580000 -5.171261
127.600000 -5.593645
127.620000 -6.000919
127.640000 -6.370453
127.660000 -6.767477
127.680000 -7.225597
127.700000 -7.729998
127.720000 -8.209235
127.740000 -8.725385
127.760000 -9.289763
127.780000 -9.799724
127.800000 -10.188880
127.820000 -10.311940
127.840000 -10.349800
127.860000 -10.542070
127.880000 -10.572510
127.900000 -10.578060
127.920000 -10.649070
127.940000 -10.744050
127.960000 -10.774860
127.980000 -10.405360
128.000000 -10.006890
128.020000 -9.734104
128.040000 -9.213179
128.060000 -8.522869
128.080000 -7.887074
128.100000 -7.353378
128.120000 -6.979558
128.140000 -6.664678
128.160000 -6.315000
128.180000 -5.864666
128.200000 -5.413365
128.220000 -4.995337
128.240000 -4.484872
128.260000 -3.764007
128.280000 -3.159467
128.300000 -2.744814
128.320000 -2.352650
128.340000 -1.963314
128.360000 -1.731698
128.380000 -1.610765
128.400000 -1.373800
128.420000 -1.076943
128.440000 -0.731522
128.460000 -0.471969
128.480000 -0.115332
128.500000 0.220651
128.520000 0.378553
128.540000 0.611177
128.560000 0.812251
128.580000 0.942581
128.600000 1.169449
128.620000 1.494775
128.640000 1.814038
128.660000 2.074851
128.680000 2.519276
128.700000 2.883517
128.720000 3.120244
128.740000 3.355193
128.760000 3.637262
128.780000 3.983650
128.800000 4.287677
128.820000 4.619739
128.840000 5.175518
128.860000 5.731494
128.880000 6.102653
128.900000 6.577857
128.920000 6.975455
128.940000 7.336280
128.960000 7.657041
128.980000 7.919590
129.000000 8.337912
129.020000 8.726072
129.040000 9.125798
129.060000 9.526882
129.080000 9.856115
129.100000 10.141600
129.120000 10.388020
129.140000 10.528910
129.160000 10.583060
129.180000 10.740200
129.200000 10.858640
129.220000 10.879660
129.240000 10.826660
129.260000 10.773500
129.280000 10.679330
129.300000 10.320350
129.320000 9.860904
129.340000 9.432289
129.360000 9.156003
129.380000 8.704478
129.400000 8.310774
129.420000 8.101536
129.440000 7.889833
129.460000 7.679866
129.480000 7.325721
129.500000 7.022436
129.520000 6.684591
129.540000 6.193549
129.560000 5.756588
129.580000 5.248196
129.600000 4.793926
129.620000 4.337235
129.640000 3.907233
129.660000 3.447349
129.680000 2.921774
129.700000 2.389254
129.720000 1.880918
129.740000 1.327813
129.760000 0.788712
129.780000 0.437773
129.800000 0.156474
129.820000 -0.052933
129.840000 -0.242608
129.860000 -0.415620
129.880000 -0.518685
129.900000 -0.777327
129.920000 -1.102975
129.940000 -1.365958
129.960000 -1.614014
129.980000 -1.888382
130.000000 -2.159893
130.020000 -2.272214
130.040000 -2.421546
130.060000 -2.631120
130.080000 -2.898207
130.100000 -3.217441
130.120000 -3.569472
130.140000 -4.066129
130.160000 -4.562381
130.180000 -4.992368
130.200000 -5.399992
130.220000 -5.821017
130.240000 -6.220659
130.260000 -6.567005
130.280000 -6.977331
130.300000 -7.483581
130.320000 -8.005626
130.340000 -8.486908
130.360000 -9.042366
130.380000 -9.592866
130.400000 -10.101520
130.420000 -10.285530
130.440000 -10.320620
130.460000 -10.481730
130.480000 -10.554340
130.500000 -10.570160
130.520000 -10.567400
130.540000 -10.702910
130.560000 -10.890050
130.580000 -10.574380
130.600000 -10.174020
130.620000 -9.923205
130.640000 -9.503651
130.660000 -8.892712
130.680000 -8.190247
130.700000 -7.620898
130.720000 -7.183727
130.740000 -6.782376
130.760000 -6.503359
130.780000 -6.184713
130.800000 -5.622408
130.820000 -5.199758
130.840000 -4.801362
130.860000 -4.152852
130.880000 -3.450808
130.900000 -2.932697
130.920000 -2.584139
130.940000 -2.168589
130.960000 -1.813072
130.980000 -1.679298
131.000000 -1.538746
131.020000 -1.220351
131.040000 -0.859639
131.060000 -0.627771
131.080000 -0.277799
131.100000 0.135091
131.120000 0.358724
131.140000 0.552181
131.160000 0.793571
131.180000 0.990388
131.200000 1.131598
131.220000 1.423204
131.240000 1.788468
131.260000 2.048342
131.280000 2.398399
131.300000 2.805518
131.320000 3.125873
131.340000 3.359926
131.360000 3.542950
131.380000 3.928868
131.400000 4.249672
131.420000 4.487967
131.440000 4.978267
131.460000 5.544087
131.480000 6.002781
131.500000 6.402171
131.520000 6.843235
131.540000 7.292617
131.560000 7.556595
131.580000 7.861560
131.600000 8.245910
131.620000 8.592396
131.640000 8.987851
131.660000 9.381135
131.680000 9.773173
131.700000 10.056280
131.720000 10.248460
131.740000 10.495780
131.760000 10.611330
131.780000 10.633160
131.800000 10.762040
131.820000 10.833830
131.840000 10.796550
131.860000 10.718550
131.880000 10.587750
131.900000 10.392650
131.920000 9.952697
131.940000 9.496551
131.960000 9.177932
131.980000 8.783163
132.000000 8.363987
132.020000 8.062494
132.040000 7.868393
132.060000 7.672990
132.080000 7.297322
132.100000 7.048636
132.120000 6.764410
132.140000 6.305114
132.160000 5.858672
132.180000 5.394741
132.200000 5.010096
132.220000 4.519754
132.240000 4.044844
132.260000 3.694858
132.280000 3.228084
132.300000 2.664252
132.320000 2.139700
132.340000 1.640032
132.360000 1.174378
132.380000 0.703473
132.400000 0.360349
132.420000 0.153967
132.440000 -0.003613
132.460000 -0.220917
132.480000 -0.350014
132.500000 -0.560457
132.520000 -0.829573
132.540000 -1.117973
132.560000 -1.397914
132.580000 -1.642287
132.600000 -1.937338
132.620000 -2.124227
132.640000 -2.256670
132.660000 -2.464130
132.680000 -2.758453
132.700000 -3.034964
132.720000 -3.369490
132.740000 -3.846823
132.760000 -4.333916
132.780000 -4.792568
132.800000 -5.179215
132.820000 -5.620713
132.840000 -6.104515
132.860000 -6.413402
132.880000 -6.839552
132.900000 -7.337204
132.920000 -7.853298
132.940000 -8.323713
132.960000 -8.808748
132.980000 -9.373503
133.000000 -9.933456
133.020000 -10.236800
133.040000 -10.313700
133.060000 -10.446290
133.080000 -10.596320
133.100000 -10.641310
133.120000 -10.604010
133.140000 -10.671040
133.160000 -10.905250
133.180000 -10.809450
133.200000 -10.418730
133.220000 -10.081090
133.240000 -9.795089
133.260000 -9.319842
133.280000 -8.584344
133.300000 -7.988948
133.320000 -7.484267
133.340000 -7.065819
133.360000 -6.708943
133.380000 -6.364166
133.400000 -5.902405
133.420000 -5.410943
133.440000 -4.999524
133.460000 -4.456865
133.480000 -3.736392
133.500000 -3.111184
133.520000 -2.715211
133.540000 -2.277648
133.560000 -1.818085
133.580000 -1.596790
133.600000 -1.472720
133.620000 -1.205452
133.640000 -0.858462
133.660000 -0.563468
133.680000 -0.332552
133.700000 0.062035
133.720000 0.428713
133.740000 0.594863
133.760000 0.771922
133.780000 1.061021
133.800000 1.188326
133.820000 1.366140
133.840000 1.726027
133.860000 1.969882
133.880000 2.282507
133.900000 2.665485
133.920000 3.020442
133.940000 3.308855
133.960000 3.519452
133.980000 3.828982
134.000000 4.208712
134.020000 4.441714
134.040000 4.775792
134.060000 5.346023
134.080000 5.817250
134.100000 6.177837
134.120000 6.623018
134.140000 7.061870
134.160000 7.398637
134.180000 7.626317
134.200000 7.971178
134.220000 8.355417
134.240000 8.701062
134.260000 9.040909
134.280000 9.440103
134.300000 9.797063
134.320000 9.976698
134.340000 10.232960
134.360000 10.421950
134.380000 10.464300
134.400000 10.583630
134.420000 10.686810
134.440000 10.686220
134.460000 10.637840
134.480000 10.569080
134.500000 10.403870
134.520000 10.096160
134.540000 9.642550
134.560000 9.268184
134.580000 9.005327
134.600000 8.557597
134.620000 8.174143
134.640000 8.010416
134.660000 7.788532
134.680000 7.503242
134.700000 7.210683
134.720000 6.907062
134.740000 6.588304
134.760000 6.144537
134.780000 5.648888
134.800000 5.283456
134.820000 4.809526
134.840000 4.308360
134.860000 3.919822
134.880000 3.478618
134.900000 2.941813
134.920000 2.422820
134.940000 1.953077
134.960000 1.431998
134.980000 0.973290
135.000000 0.601403
135.020000 0.335647
135.040000 0.148534
135.060000 -0.103695
135.080000 -0.287531
135.100000 -0.385093
135.120000 -0.703361
135.140000 -1.043895
135.160000 -1.276407
135.180000 -1.527991
135.200000 -1.809781
135.220000 -2.087314
135.240000 -2.269484
135.260000 -2.387266
135.280000 -2.638178
135.300000 -2.987702
135.320000 -3.311866
135.340000 -3.665619
135.360000 -4.163285
135.380000 -4.665319
135.400000 -5.082578
135.420000 -5.487723
135.440000 -5.903651
135.460000 -6.314916
135.480000 -6.755378
135.500000 -7.147038
135.520000 -7.645460
135.540000 -8.202416
135.560000 -8.596779
135.580000 -9.137112
135.600000 -9.678805
135.620000 -10.094610
135.640000 -10.324780
135.660000 -10.343560
135.680000 -10.492390
135.700000 -10.632740
135.720000 -10.588940
135.740000 -10.608400
135.760000 -10.787510
135.780000 -10.839450
135.800000 -10.609780
135.820000 -10.236920
135.840000 -9.919411
135.860000 -9.534738
135.880000 -8.927748
135.900000 -8.251540
135.920000 -7.652518
135.940000 -7.168533
135.960000 -6.771258
135.980000 -6.478391
136.000000 -6.057268
136.020000 -5.506810
136.040000 -5.117712
136.060000 -4.660838
136.080000 -3.997415
136.100000 -3.304010
136.120000 -2.778030
136.140000 -2.386874
136.160000 -1.935685
136.180000 -1.562804
136.200000 -1.407422
136.220000 -1.250655
136.240000 -0.925819
136.260000 -0.631342
136.280000 -0.368457
136.300000 -0.032152
136.320000 0.299574
136.340000 0.563131
136.360000 0.790910
136.380000 0.967031
136.400000 1.154774
136.420000 1.304316
136.440000 1.533789
136.460000 1.863694
136.480000 2.048692
136.500000 2.350563
136.520000 2.796108
136.540000 3.057229
136.560000 3.265193
136.580000 3.533805
136.600000 3.869774
136.620000 4.172849
136.640000 4.439403
136.660000 4.893518
136.680000 5.429917
136.700000 5.898302
136.720000 6.310477
136.740000 6.746710
136.760000 7.167539
136.780000 7.498985
136.800000 7.797901
136.820000 8.163906
136.840000 8.454308
136.860000 8.893468
136.880000 9.287453
136.900000 9.581103
136.920000 9.916134
136.940000 10.143250
136.960000 10.403810
136.980000 10.512470
137.000000 10.539580
137.020000 10.704590
137.040000 10.800520
137.060000 10.707530
137.080000 10.664990
137.100000 10.599820
137.120000 10.370950
137.140000 9.992760
137.160000 9.562087
137.180000 9.219200
137.200000 8.875544
137.220000 8.467135
137.240000 8.133645
137.260000 7.908079
137.280000 7.715239
137.300000 7.389632
137.320000 7.101037
137.340000 6.800497
137.360000 6.378407
137.380000 5.997460
137.400000 5.513055
137.420000 5.016636
137.440000 4.585486
137.460000 4.132519
137.480000 3.732891
137.500000 3.224163
137.520000 2.638136
137.540000 2.213792
137.560000 1.735213
137.580000 1.142927
137.600000 0.709453
137.620000 0.413743
137.640000 0.168671
137.660000 -0.040834
137.680000 -0.312947
137.700000 -0.463119
137.720000 -0.558580
137.740000 -0.915848
137.760000 -1.248610
137.780000 -1.437109
137.800000 -1.701115
137.820000 -1.982499
137.840000 -2.204172
137.860000 -2.427904
137.880000 -2.552730
137.900000 -2.812828
137.920000 -3.175375
137.940000 -3.485662
137.960000 -3.914039
137.980000 -4.374119
138.000000 -4.806123
138.020000 -5.285571
138.040000 -5.708640
138.060000 -6.124022
138.080000 -6.507504
138.100000 -6.959995
138.120000 -7.456148
138.140000 -7.904746
138.160000 -8.366031
138.180000 -8.878540
138.200000 -9.441910
138.220000 -9.981193
138.240000 -10.269980
138.260000 -10.380950
138.280000 -10.541300
138.300000 -10.610840
138.320000 -10.636190
138.340000 -10.616540
138.360000 -10.634020
138.380000 -10.860060
138.400000 -10.723810
138.420000 -10.296240
138.440000 -10.024740
138.460000 -9.683160
138.480000 -9.183464
138.500000 -8.487846
138.520000 -7.790801
138.540000 -7.293009
138.560000 -6.848276
138.580000 -6.444503
138.600000 -6.141512
138.620000 -5.677987
138.640000 -5.177073
138.660000 -4.820015
138.680000 -4.275900
138.700000 -3.568100
138.720000 -2.957343
138.740000 -2.488650
138.760000 -2.073100
138.780000 -1.640816
138.800000 -1.355400
138.820000 -1.279544
138.840000 -1.030690
138.860000 -0.716720
138.880000 -0.493297
138.900000 -0.217374
138.920000 0.126492
138.940000 0.457238
138.960000 0.648104
138.980000 0.816970
139.000000 1.068695
139.020000 1.158512
139.040000 1.288688
139.060000 1.624797
139.080000 1.861369
139.100000 2.125991
139.120000 2.493986
139.140000 2.848677
139.160000 3.155981
139.180000 3.355375
139.200000 3.644684
139.220000 4.025912
139.240000 4.280801
139.260000 4.644118
139.280000 5.181428
139.300000 5.672722
139.320000 6.140938
139.340000 6.563672
139.360000 7.048776
139.380000 7.403104
139.400000 7.673439
139.420000 8.033871
139.440000 8.372921
139.460000 8.746363
139.480000 9.095088
139.500000 9.502194
139.520000 9.887889
139.540000 10.067400
139.560000 10.361820
139.580000 10.559070
139.600000 10.626800
139.620000 10.753930
139.640000 10.804400
139.660000 10.858630
139.680000 10.854710
139.700000 10.733100
139.720000 10.608750
139.740000 10.327270
139.760000 9.868718
139.780000 9.484480
139.800000 9.110254
139.820000 8.703344
139.840000 8.295930
139.860000 8.018215
139.880000 7.833609
139.900000 7.547212
139.920000 7.233733
139.940000 6.955136
139.960000 6.610275
139.980000 6.190174
140.000000 5.667806
140.020000 5.222611
140.040000 4.766550
140.060000 4.237447
140.080000 3.848881
140.100000 3.381239
140.120000 2.860090
140.140000 2.367185
140.160000 1.830254
140.180000 1.353845
140.200000 0.896860
140.220000 0.451553
140.240000 0.207768
140.260000 0.010909
140.280000 -0.223592
140.300000 -0.387655
140.320000 -0.520295
140.340000 -0.776473
140.360000 -1.079674
140.380000 -1.346396
140.400000 -1.609477
140.420000 -1.890454
140.440000 -2.128834
140.460000 -2.339794
140.480000 -2.484393
140.500000 -2.730768
140.520000 -3.008245
140.540000 -3.321570
140.560000 -3.709296
140.580000 -4.201066
140.600000 -4.681283
140.620000 -5.086261
140.640000 -5.562459
140.660000 -6.009307
140.680000 -6.374458
140.700000 -6.765600
140.720000 -7.206538
140.740000 -7.704344
140.760000 -8.222315
140.780000 -8.648213
140.800000 -9.177274
140.820000 -9.804583
140.840000 -10.238550
140.860000 -10.320310
140.880000 -10.340030
140.900000 -10.527980
140.920000 -10.639130
140.940000 -10.516740
140.960000 -10.465150
140.980000 -10.710630
141.000000 -10.786600
141.020000 -10.369530
141.040000 -9.985464
141.060000 -9.793716
141.080000 -9.319674
141.100000 -8.602646
141.120000 -7.940301
141.140000 -7.410791
141.160000 -6.953792
141.180000 -6.537584
141.200000 -6.287806
141.220000 -5.887211
141.240000 -5.333630
141.260000 -5.021369
141.280000 -4.575418
141.300000 -3.859580
141.320000 -3.152858
141.340000 -2.707439
141.360000 -2.372100
141.380000 -1.841065
141.400000 -1.538186
141.420000 -1.529812
141.440000 -1.306766
141.460000 -0.958699
141.480000 -0.700518
141.500000 -0.465066
141.520000 -0.133172
141.540000 0.286285
141.560000 0.466788
141.580000 0.587021
141.600000 0.890754
141.620000 0.979970
141.640000 1.064508
141.660000 1.421580
141.680000 1.697838
141.700000 1.960555
141.720000 2.299493
141.740000 2.720126
141.760000 3.048365
141.780000 3.189659
141.800000 3.480117
141.820000 3.898201
141.840000 4.127086
141.860000 4.431547
141.880000 4.986977
141.900000 5.544661
141.920000 5.998062
141.940000 6.402591
141.960000 6.923222
141.980000 7.357383
142.000000 7.576297
142.020000 7.931339
142.040000 8.339173
142.060000 8.692604
142.080000 9.055305
142.100000 9.488527
142.120000 9.907284
142.140000 10.132680
142.160000 10.382100
142.180000 10.627700
142.200000 10.692820
142.220000 10.743130
142.240000 10.886820
142.260000 10.959150
142.280000 10.880240
142.300000 10.820180
142.320000 10.739910
142.340000 10.526010
142.360000 10.027320
142.380000 9.555799
142.400000 9.307603
142.420000 8.868640
142.440000 8.363258
142.460000 8.090417
142.480000 7.922488
142.500000 7.678648
142.520000 7.317697
142.540000 7.006262
142.560000 6.747242
142.580000 6.296278
142.600000 5.757414
142.620000 5.347115
142.640000 4.886797
142.660000 4.390251
142.680000 3.964199
142.700000 3.539071
142.720000 3.061052
142.740000 2.484547
142.760000 2.008055
142.780000 1.541645
142.800000 0.955632
142.820000 0.542406
142.840000 0.266274
142.860000 0.041940
142.880000 -0.175042
142.900000 -0.397122
142.920000 -0.481968
142.940000 -0.656926
142.960000 -1.020411
142.980000 -1.289430
143.000000 -1.483447
143.020000 -1.778596
143.040000 -2.039002
143.060000 -2.204844
143.080000 -2.344079
143.100000 -2.520480
143.120000 -2.812422
143.140000 -3.095948
143.160000 -3.429746
143.180000 -3.920228
143.200000 -4.413231
143.220000 -4.822059
143.240000 -5.257578
143.260000 -5.725892
143.280000 -6.118785
143.300000 -6.535777
143.320000 -6.902875
143.340000 -7.428996
143.360000 -7.957301
143.380000 -8.395032
143.400000 -8.940981
143.420000 -9.495725
143.440000 -10.065940
143.460000 -10.280730
143.480000 -10.287080
143.500000 -10.429010
143.520000 -10.566590
143.540000 -10.527300
143.560000 -10.510000
143.580000 -10.660820
143.600000 -10.859950
143.620000 -10.626330
143.640000 -10.160830
143.660000 -9.948734
143.680000 -9.594896
143.700000 -8.953878
143.720000 -8.256945
143.740000 -7.662782
143.760000 -7.241757
143.780000 -6.831990
143.800000 -6.555592
143.820000 -6.208785
143.840000 -5.710307
143.860000 -5.304391
143.880000 -4.880873
143.900000 -4.267330
143.920000 -3.484654
143.940000 -2.943774
143.960000 -2.614330
143.980000 -2.102101
144.000000 -1.735549
144.020000 -1.608833
144.040000 -1.431550
144.060000 -1.178145
144.080000 -0.813764
144.100000 -0.570931
144.120000 -0.281930
144.140000 0.145187
144.160000 0.361497
144.180000 0.509330
144.200000 0.733146
144.220000 0.861053
144.240000 1.010973
144.260000 1.222732
144.280000 1.559485
144.300000 1.851637
144.320000 2.140569
144.340000 2.596252
144.360000 2.933817
144.380000 3.181691
144.400000 3.440081
144.420000 3.783878
144.440000 4.155597
144.460000 4.409254
144.480000 4.869307
144.500000 5.491224
144.520000 5.932806
144.540000 6.367149
144.560000 6.849495
144.580000 7.241953
144.600000 7.580974
144.620000 7.839701
144.640000 8.168178
144.660000 8.588391
144.680000 8.925900
144.700000 9.331269
144.720000 9.725548
144.740000 10.017060
144.760000 10.268420
144.780000 10.486210
144.800000 10.603450
144.820000 10.643620
144.840000 10.822990
144.860000 10.900050
144.880000 10.852100
144.900000 10.832850
144.920000 10.761290
144.940000 10.576070
144.960000 10.174380
144.980000 9.677628
145.000000 9.340273
145.020000 8.970556
145.040000 8.482819
145.060000 8.173513
145.080000 7.952876
145.100000 7.728892
145.120000 7.463556
145.140000 7.114410
145.160000 6.822496
145.180000 6.416132
145.200000 5.948056
145.220000 5.493941
145.240000 5.009522
145.260000 4.564817
145.280000 4.084628
145.300000 3.707699
145.320000 3.246820
145.340000 2.688590
145.360000 2.202239
145.380000 1.684129
145.400000 1.150713
145.420000 0.727181
145.440000 0.342088
145.460000 0.078195
145.480000 -0.039784
145.500000 -0.238785
145.520000 -0.397738
145.540000 -0.517158
145.560000 -0.803989
145.580000 -1.039568
145.600000 -1.315364
145.620000 -1.624657
145.640000 -1.833755
145.660000 -2.004764
145.680000 -2.167469
145.700000 -2.339977
145.720000 -2.583313
145.740000 -2.818864
145.760000 -3.173415
145.780000 -3.656321
145.800000 -4.141173
145.820000 -4.616868
145.840000 -5.064163
145.860000 -5.492470
145.880000 -5.957452
145.900000 -6.329157
145.920000 -6.693707
145.940000 -7.206832
145.960000 -7.719804
145.980000 -8.234189
146.000000 -8.747315
146.020000 -9.282481
146.040000 -9.918906
146.060000 -10.252720
146.080000 -10.294530
146.100000 -10.408760
146.120000 -10.572440
146.140000 -10.624900
146.160000 -10.557360
146.180000 -10.672640
146.200000 -10.937120
146.220000 -10.831700
146.240000 -10.390340
146.260000 -10.156000
146.280000 -9.873774
146.300000 -9.322797
146.320000 -8.604676
146.340000 -8.028886
146.360000 -7.564870
146.380000 -7.108599
146.400000 -6.815354
146.420000 -6.526605
146.440000 -6.056288
146.460000 -5.555738
146.480000 -5.163055
146.500000 -4.636865
146.520000 -3.846445
146.540000 -3.214543
146.560000 -2.827546
146.580000 -2.374593
146.600000 -1.937506
146.620000 -1.703005
146.640000 -1.606592
146.660000 -1.311793
146.680000 -0.920497
146.700000 -0.672764
146.720000 -0.362463
146.740000 0.079105
146.760000 0.379071
146.780000 0.562613
146.800000 0.728973
146.820000 0.999952
146.840000 1.137788
146.860000 1.256578
146.880000 1.648126
146.900000 1.945684
146.920000 2.196708
146.940000 2.619680
146.960000 2.953310
146.980000 3.232859
147.000000 3.446354
147.020000 3.722725
147.040000 4.123613
147.060000 4.342444
147.080000 4.736751
147.100000 5.324500
147.120000 5.792646
147.140000 6.183971
147.160000 6.620806
147.180000 7.091459
147.200000 7.375181
147.220000 7.614849
147.240000 7.996244
147.260000 8.371282
147.280000 8.717488
147.300000 9.079251
147.320000 9.491342
147.340000 9.850906
147.360000 10.047600
147.380000 10.269690
147.400000 10.467140
147.420000 10.498380
147.440000 10.613030
147.460000 10.718150
147.480000 10.734360
147.500000 10.709610
147.520000 10.619940
147.540000 10.504780
147.560000 10.136210
147.580000 9.691128
147.600000 9.332529
147.620000 8.971859
147.640000 8.579848
147.660000 8.180192
147.680000 7.972200
147.700000 7.848061
147.720000 7.519206
147.740000 7.221984
147.760000 6.975189
147.780000 6.568153
147.800000 6.162097
147.820000 5.669543
147.840000 5.226462
147.860000 4.809722
147.880000 4.278673
147.900000 3.921153
147.920000 3.492229
147.940000 2.919716
147.960000 2.429892
147.980000 1.916991
148.000000 1.411819
148.020000 0.913692
148.040000 0.521233
148.060000 0.309572
148.080000 0.102000
148.100000 -0.098514
148.120000 -0.236223
148.140000 -0.357506
148.160000 -0.604553
148.180000 -0.951431
148.200000 -1.167027
148.220000 -1.393587
148.240000 -1.698734
148.260000 -1.940909
148.280000 -2.049309
148.300000 -2.206861
148.320000 -2.453628
148.340000 -2.758467
148.360000 -3.080124
148.380000 -3.423935
148.400000 -3.973525
148.420000 -4.441364
148.440000 -4.863593
148.460000 -5.314362
148.480000 -5.743817
148.500000 -6.162167
148.520000 -6.543353
148.540000 -7.010365
148.560000 -7.509277
148.580000 -8.011816
148.600000 -8.512968
148.620000 -9.035168
148.640000 -9.606561
148.660000 -10.063030
148.680000 -10.266950
148.700000 -10.345290
148.720000 -10.480190
148.740000 -10.643010
148.760000 -10.621900
148.780000 -10.611550
148.800000 -10.814490
148.820000 -10.922640
148.840000 -10.612100
148.860000 -10.243830
148.880000 -9.988531
148.900000 -9.609180
148.920000 -9.006587
148.940000 -8.326934
148.960000 -7.817169
148.980000 -7.344850
149.000000 -6.902315
149.020000 -6.652257
149.040000 -6.297426
149.060000 -5.711735
149.080000 -5.276959
149.100000 -4.874488
149.120000 -4.217436
149.140000 -3.471000
149.160000 -2.946154
149.180000 -2.540729
149.200000 -2.085059
149.220000 -1.661471
149.240000 -1.496764
149.260000 -1.322926
149.280000 -0.962983
149.300000 -0.645625
149.320000 -0.400832
149.340000 -0.057876
149.360000 0.330395
149.380000 0.551621
149.400000 0.736171
149.420000 0.975530
149.440000 1.165402
149.460000 1.274600
149.480000 1.525359
149.500000 1.867643
149.520000 2.068185
149.540000 2.360253
149.560000 2.781741
149.580000 3.083961
149.600000 3.307077
149.620000 3.519382
149.640000 3.946163
149.660000 4.223877
149.680000 4.470169
149.700000 4.964823
149.720000 5.462041
149.740000 5.911703
149.760000 6.315308
149.780000 6.713564
149.800000 7.131032
149.820000 7.406422
149.840000 7.683311
149.860000 8.084872
149.880000 8.383843
149.900000 8.725273
149.920000 9.183912
149.940000 9.494898
149.960000 9.750768
149.980000 10.010840
150.000000 10.243880
150.020000 10.411120
150.040000 10.422710
150.060000 10.596320
150.080000 10.743750
150.100000 10.676610
150.120000 10.613940
150.140000 10.531640
150.160000 10.334510
150.180000 9.939995
150.200000 9.501242
150.220000 9.187539
150.240000 8.868668
150.260000 8.462416
150.280000 8.194112
150.300000 7.981275
150.320000 7.776699
150.340000 7.471188
150.360000 7.173728
150.380000 6.917243
150.400000 6.470633
150.420000 6.033798
150.440000 5.641088
150.460000 5.152231
150.480000 4.653235
150.500000 4.208502
150.520000 3.773487
150.540000 3.303408
150.560000 2.685286
150.580000 2.163170
150.600000 1.749216
150.620000 1.173496
150.640000 0.718863
150.660000 0.412273
150.680000 0.181232
150.700000 -0.008780
150.720000 -0.270951
150.740000 -0.403829
150.760000 -0.598168
150.780000 -0.892028
150.800000 -1.175176
150.820000 -1.440722
150.840000 -1.628549
150.860000 -1.939900
150.880000 -2.128288
150.900000 -2.263616
150.920000 -2.508045
150.940000 -2.745444
150.960000 -3.056515
150.980000 -3.413937
151.000000 -3.821883
151.020000 -4.309256
151.040000 -4.719162
151.060000 -5.130175
151.080000 -5.592146
151.100000 -6.004237
151.120000 -6.358396
151.140000 -6.839328
151.160000 -7.292771
151.180000 -7.779514
151.200000 -8.254312
151.220000 -8.753112
151.240000 -9.269346
151.260000 -9.790622
151.280000 -10.157080
151.300000 -10.257800
151.320000 -10.423900
151.340000 -10.564180
151.360000 -10.628530
151.380000 -10.646900
151.400000 -10.638580
151.420000 -10.838280
151.440000 -10.808260
151.460000 -10.358650
151.480000 -10.033540
151.500000 -9.774252
151.520000 -9.292690
151.540000 -8.614465
151.560000 -7.989074
151.580000 -7.491311
151.600000 -7.023948
151.620000 -6.629362
151.640000 -6.322128
151.660000 -5.880588
151.680000 -5.360111
151.700000 -4.916960
151.720000 -4.476792
151.740000 -3.817136
151.760000 -3.126392
151.780000 -2.740081
151.800000 -2.297686
151.820000 -1.829568
151.840000 -1.565604
151.860000 -1.365048
151.880000 -1.160081
151.900000 -0.806160
151.920000 -0.485259
151.940000 -0.322007
151.960000 0.102967
151.980000 0.446651
152.000000 0.595479
152.020000 0.846195
152.040000 1.091170
152.060000 1.240936
152.080000 1.374935
152.100000 1.702431
152.120000 1.983199
152.140000 2.186290
152.160000 2.559367
152.180000 2.921354
152.200000 3.227048
152.220000 3.446943
152.240000 3.683740
152.260000 4.118306
152.280000 4.376752
152.300000 4.627034
152.320000 5.187659
152.340000 5.656520
152.360000 6.055210
152.380000 6.485281
152.400000 6.878986
152.420000 7.272704
152.440000 7.542129
152.460000 7.842641
152.480000 8.225493
152.500000 8.521440
152.520000 8.880739
152.540000 9.270186
152.560000 9.618674
152.580000 9.834368
152.600000 10.102220
152.620000 10.367690
152.640000 10.448640
152.660000 10.553200
152.680000 10.677870
152.700000 10.707110
152.720000 10.717980
152.740000 10.581640
152.760000 10.430240
152.780000 10.235580
152.800000 9.808630
152.820000 9.412783
152.840000 9.126064
152.860000 8.748295
152.880000 8.385538
152.900000 8.125803
152.920000 7.911860
152.940000 7.689725
152.960000 7.385977
152.980000 7.076727
153.000000 6.770530
153.020000 6.359755
153.040000 5.884397
153.060000 5.451132
153.080000 4.977805
153.100000 4.467186
153.120000 3.996967
153.140000 3.575732
153.160000 3.012166
153.180000 2.440045
153.200000 1.945068
153.220000 1.439420
153.240000 0.962073
153.260000 0.511613
153.280000 0.207558
153.300000 0.019297
153.320000 -0.219979
153.340000 -0.455572
153.360000 -0.587035
153.380000 -0.811327
153.400000 -1.144313
153.420000 -1.378701
153.440000 -1.633003
153.460000 -1.906194
153.480000 -2.117981
153.500000 -2.356262
153.520000 -2.494910
153.540000 -2.703714
153.560000 -3.041349
153.580000 -3.296925
153.600000 -3.659486
153.620000 -4.158706
153.640000 -4.539289
153.660000 -4.989203
153.680000 -5.454311
153.700000 -5.832430
153.720000 -6.270553
153.740000 -6.617585
153.760000 -7.094119
153.780000 -7.632577
153.800000 -8.052342
153.820000 -8.512478
153.840000 -9.053302
153.860000 -9.607387
153.880000 -10.068340
153.900000 -10.243700
153.920000 -10.376050
153.940000 -10.519870
153.960000 -10.605950
153.980000 -10.620170
154.000000 -10.572070
154.020000 -10.715150
154.040000 -10.831830
154.060000 -10.528910
154.080000 -10.138060
154.100000 -9.855429
154.120000 -9.491622
154.140000 -8.894784
154.160000 -8.148713
154.180000 -7.593619
154.200000 -7.139686
154.220000 -6.697838
154.240000 -6.377091
154.260000 -6.016028
154.280000 -5.519679
154.300000 -5.099060
154.320000 -4.672657
154.340000 -4.079265
154.360000 -3.381967
154.380000 -2.850819
154.400000 -2.463892
154.420000 -1.999849
154.440000 -1.616549
154.460000 -1.442375
154.480000 -1.312227
154.500000 -0.995751
154.520000 -0.654041
154.540000 -0.440098
154.560000 -0.133032
154.580000 0.280375
154.600000 0.532436
154.620000 0.695365
154.640000 0.936867
154.660000 1.143445
154.680000 1.240460
154.700000 1.470311
154.720000 1.758473
154.740000 2.021358
154.760000 2.304562
154.780000 2.652336
154.800000 3.020526
154.820000 3.219080
154.840000 3.427394
154.860000 3.786832
154.880000 4.081813
154.900000 4.346869
154.920000 4.768594
154.940000 5.312947
154.960000 5.782928
154.980000 6.181968
155.000000 6.647594
155.020000 7.106554
155.040000 7.398118
155.060000 7.688646
155.080000 8.087574
155.100000 8.444100
155.120000 8.796397
155.140000 9.189345
155.160000 9.628421
155.180000 9.929969
155.200000 10.163480
155.220000 10.444090
155.240000 10.581830
155.260000 10.714890
155.280000 10.776640
155.300000 10.878040
155.320000 10.898360
155.340000 10.802990
155.360000 10.738800
155.380000 10.544940
155.400000 10.152340
155.420000 9.767782
155.440000 9.420555
155.460000 9.032185
155.480000 8.632907
155.500000 8.293760
155.520000 8.097573
155.540000 7.891905
155.560000 7.531907
155.580000 7.261810
155.600000 6.985537
155.620000 6.562510
155.640000 6.101267
155.660000 5.602985
155.680000 5.166346
155.700000 4.663149
155.720000 4.136762
155.740000 3.693556
155.760000 3.216251
155.780000 2.649325
155.800000 2.104552
155.820000 1.566291
155.840000 1.023632
155.860000 0.595689
155.880000 0.200962
155.900000 -0.070241
155.920000 -0.248098
155.940000 -0.485917
155.960000 -0.631552
155.980000 -0.785645
156.000000 -1.107918
156.020000 -1.325601
156.040000 -1.585755
156.060000 -1.867153
156.080000 -2.098012
156.100000 -2.298036
156.120000 -2.434961
156.140000 -2.627074
156.160000 -2.864935
156.180000 -3.111380
156.200000 -3.463915
156.220000 -3.856079
156.240000 -4.321985
156.260000 -4.780483
156.280000 -5.196761
156.300000 -5.637195
156.320000 -6.067295
156.340000 -6.443593
156.360000 -6.879000
156.380000 -7.343785
156.400000 -7.821062
156.420000 -8.323433
156.440000 -8.792616
156.460000 -9.354221
156.480000 -9.930739
156.500000 -10.235510
156.520000 -10.308200
156.540000 -10.414010
156.560000 -10.577960
156.580000 -10.574540
156.600000 -10.510860
156.620000 -10.609440
156.640000 -10.811270
156.660000 -10.685560
156.680000 -10.231770
156.700000 -10.027190
156.720000 -9.701854
156.740000 -9.120701
156.760000 -8.442910
156.780000 -7.791725
156.800000 -7.332611
156.820000 -6.870360
156.840000 -6.542275
156.860000 -6.286447
156.880000 -5.764934
156.900000 -5.323702
156.920000 -4.986347
156.940000 -4.408638
156.960000 -3.680379
156.980000 -3.066401
157.000000 -2.670176
157.020000 -2.213470
157.040000 -1.760461
157.060000 -1.587618
157.080000 -1.482872
157.100000 -1.163596
157.120000 -0.876653
157.140000 -0.599302
157.160000 -0.302179
157.180000 0.098682
157.200000 0.420255
157.220000 0.549982
157.240000 0.806916
157.260000 0.998398
157.280000 1.082530
157.300000 1.281378
157.320000 1.595712
157.340000 1.867839
157.360000 2.119816
157.380000 2.508535
157.400000 2.906819
157.420000 3.103552
157.440000 3.329118
157.460000 3.646701
157.480000 3.952954
157.500000 4.194904
157.520000 4.601506
157.540000 5.167158
157.560000 5.638735
157.580000 6.074380
157.600000 6.557580
157.620000 6.996432
157.640000 7.298596
157.660000 7.598058
157.680000 7.948857
157.700000 8.332955
157.720000 8.665185
157.740000 9.084838
157.760000 9.558278
157.780000 9.868466
157.800000 10.155490
157.820000 10.447690
157.840000 10.639510
157.860000 10.707670
157.880000 10.834310
157.900000 10.985110
157.920000 10.980430
157.940000 10.933000
157.960000 10.906030
157.980000 10.789370
158.000000 10.423850
158.020000 9.955147
158.040000 9.572239
158.060000 9.224353
158.080000 8.754470
158.100000 8.335658
158.120000 8.150575
158.140000 7.916999
158.160000 7.624651
158.180000 7.297546
158.200000 7.033933
158.220000 6.682392
158.240000 6.182682
158.260000 5.699440
158.280000 5.253223
158.300000 4.751776
158.320000 4.213473
158.340000 3.819390
158.360000 3.320226
158.380000 2.771210
158.400000 2.243143
158.420000 1.703986
158.440000 1.158428
158.460000 0.639688
158.480000 0.217626
158.500000 -0.013457
158.520000 -0.231280
158.540000 -0.483690
158.560000 -0.571463
158.580000 -0.678043
158.600000 -0.923886
158.620000 -1.177823
158.640000 -1.469625
158.660000 -1.656150
158.680000 -1.914316
158.700000 -2.157177
158.720000 -2.251657
158.740000 -2.392811
158.760000 -2.584097
158.780000 -2.842725
158.800000 -3.131363
158.820000 -3.527966
158.840000 -4.017370
158.860000 -4.499240
158.880000 -4.936439
158.900000 -5.401546
158.920000 -5.872788
158.940000 -6.226723
158.960000 -6.610989
158.980000 -7.083043
159.000000 -7.606895
159.020000 -8.079424
159.040000 -8.568072
159.060000 -9.187497
159.080000 -9.814189
159.100000 -10.246530
159.120000 -10.318770
159.140000 -10.433400
159.160000 -10.623750
159.180000 -10.633010
159.200000 -10.599020
159.220000 -10.641730
159.240000 -10.866930
159.260000 -10.891130
159.280000 -10.522660
159.300000 -10.226010
159.320000 -9.977188
159.340000 -9.466374
159.360000 -8.778542
159.380000 -8.105288
159.400000 -7.550209
159.420000 -7.109985
159.440000 -6.783035
159.460000 -6.504242
159.480000 -6.055238
159.500000 -5.599008
159.520000 -5.232400
159.540000 -4.724078
159.560000 -3.983986
159.580000 -3.291589
159.600000 -2.884259
159.620000 -2.420132
159.640000 -1.940460
159.660000 -1.714880
159.680000 -1.588696
159.700000 -1.351549
159.720000 -1.004167
159.740000 -0.713430
159.760000 -0.431500
159.780000 -0.014059
159.800000 0.340268
159.820000 0.538779
159.840000 0.734869
159.860000 0.923382
159.880000 1.048978
159.900000 1.153793
159.920000 1.489748
159.940000 1.779632
159.960000 2.001627
159.980000 2.428772
160.000000 2.816623
160.020000 3.061906
160.040000 3.278678
160.060000 3.521581
160.080000 3.864859
160.100000 4.123403
160.120000 4.445789
160.140000 5.010236
160.160000 5.530461
160.180000 5.974858
160.200000 6.421160
160.220000 6.868847
160.240000 7.258547
160.260000 7.476019
160.280000 7.828680
160.300000 8.202976
160.320000 8.551940
160.340000 8.985036
160.360000 9.395979
160.380000 9.802566
160.400000 10.112010
160.420000 10.331100
160.440000 10.567680
160.460000 10.635300
160.480000 10.726170
160.500000 10.888600
160.520000 10.905610
160.540000 10.907800
160.560000 10.861750
160.580000 10.745920
160.600000 10.511890
160.620000 10.005970
160.640000 9.575810
160.660000 9.242530
160.680000 8.783093
160.700000 8.381337
160.720000 8.089479
160.740000 7.903976
160.760000 7.699009
160.780000 7.371582
160.800000 7.083589
160.820000 6.745604
160.840000 6.309819
160.860000 5.831240
160.880000 5.305007
160.900000 4.840572
160.920000 4.356741
160.940000 3.898355
160.960000 3.476392
160.980000 2.917083
161.000000 2.391971
161.020000 1.905340
161.040000 1.329284
161.060000 0.771795
161.080000 0.367350
161.100000 0.092856
161.120000 -0.116340
161.140000 -0.301619
161.160000 -0.434118
161.180000 -0.515478
161.200000 -0.662905
161.220000 -0.965056
161.240000 -1.211109
161.260000 -1.404594
161.280000 -1.688764
161.300000 -1.904066
161.320000 -2.025335
161.340000 -2.192045
161.360000 -2.331406
161.380000 -2.579644
161.400000 -2.893193
161.420000 -3.242563
161.440000 -3.748757
161.460000 -4.258508
161.480000 -4.702919
161.500000 -5.184536
161.520000 -5.640724
161.540000 -6.043419
161.560000 -6.437305
161.580000 -6.851791
161.600000 -7.375349
161.620000 -7.904620
161.640000 -8.403924
161.660000 -8.960894
161.680000 -9.542790
161.700000 -10.150550
161.720000 -10.367830
161.740000 -10.386210
161.760000 -10.590480
161.780000 -10.715770
161.800000 -10.725280
161.820000 -10.696080
161.840000 -10.856030
161.860000 -11.065700
161.880000 -10.776250
161.900000 -10.384290
161.920000 -10.206160
161.940000 -9.805255
161.960000 -9.160092
161.980000 -8.514579
162.000000 -7.927726
162.020000 -7.432469
162.040000 -7.001221
162.060000 -6.752983
162.080000 -6.415824
162.100000 -5.794691
162.120000 -5.351568
162.140000 -5.002801
162.160000 -4.314101
162.180000 -3.504763
162.200000 -3.001285
162.220000 -2.650515
162.240000 -2.136354
162.260000 -1.704826
162.280000 -1.623564
162.300000 -1.449755
162.320000 -1.031278
162.340000 -0.737487
162.360000 -0.508364
162.380000 -0.131212
162.400000 0.291284
162.420000 0.524328
162.440000 0.649252
162.460000 0.924446
162.480000 1.130492
162.500000 1.177109
162.520000 1.450903
162.540000 1.840042
162.560000 2.036005
162.580000 2.330790
162.600000 2.763648
162.620000 3.110176
162.640000 3.242942
162.660000 3.462178
162.680000 3.897809
162.700000 4.119664
162.720000 4.350594
162.740000 4.825168
162.760000 5.392528
162.780000 5.822054
162.800000 6.160305
162.820000 6.657410
162.840000 7.091557
162.860000 7.307825
162.880000 7.597988
162.900000 8.027108
162.920000 8.377556
162.940000 8.729040
162.960000 9.150206
162.980000 9.575530
163.000000 9.857684
163.020000 10.059350
163.040000 10.376190
163.060000 10.469870
163.080000 10.512730
163.100000 10.694030
163.120000 10.796950
163.140000 10.779460
163.160000 10.690800
163.180000 10.651160
163.200000 10.479770
163.220000 10.009900
163.240000 9.560798
163.260000 9.245947
163.280000 8.918450
163.300000 8.433653
163.320000 8.111996
163.340000 8.013706
163.360000 7.784863
163.380000 7.452409
163.400000 7.188376
163.420000 6.907328
163.440000 6.490574
163.460000 5.999434
163.480000 5.560849
163.500000 5.134236
163.520000 4.619655
163.540000 4.126218
163.560000 3.760072
163.580000 3.261468
163.600000 2.674937
163.620000 2.165032
163.640000 1.675671
163.660000 1.131332
163.680000 0.661659
163.700000 0.350420
163.720000 0.130343
163.740000 -0.047401
163.760000 -0.251655
163.780000 -0.377349
163.800000 -0.490440
163.820000 -0.831114
163.840000 -1.101379
163.860000 -1.294387
163.880000 -1.600249
163.900000 -1.836457
163.920000 -2.028500
163.940000 -2.157961
163.960000 -2.295726
163.980000 -2.604696
164.000000 -2.860972
164.020000 -3.160112
164.040000 -3.626816
164.060000 -4.141636
164.080000 -4.582196
164.100000 -4.995351
164.120000 -5.465136
164.140000 -5.910093
164.160000 -6.280874
164.180000 -6.681874
164.200000 -7.188978
164.220000 -7.715043
164.240000 -8.203648
164.260000 -8.727472
164.280000 -9.284918
164.300000 -9.869951
164.320000 -10.260850
164.340000 -10.397420
164.360000 -10.515000
164.380000 -10.680130
164.400000 -10.769440
164.420000 -10.755550
164.440000 -10.832220
164.460000 -11.012700
164.480000 -10.964100
164.500000 -10.576730
164.520000 -10.297390
164.540000 -9.991486
164.560000 -9.488037
164.580000 -8.861148
164.600000 -8.220858
164.620000 -7.686574
164.640000 -7.196218
164.660000 -6.777895
164.680000 -6.583557
164.700000 -6.039358
164.720000 -5.452673
164.740000 -5.121675
164.760000 -4.575824
164.780000 -3.848321
164.800000 -3.184225
164.820000 -2.744660
164.840000 -2.343141
164.860000 -1.801029
164.880000 -1.510263
164.900000 -1.419801
164.920000 -1.064858
164.940000 -0.722728
164.960000 -0.486351
164.980000 -0.188569
165.000000 0.165758
165.020000 0.512481
165.040000 0.663830
165.060000 0.875070
165.080000 1.150727
165.100000 1.249926
165.120000 1.396038
165.140000 1.713466
165.160000 2.000143
165.180000 2.186318
165.200000 2.522244
165.220000 2.946518
165.240000 3.152326
165.260000 3.332339
165.280000 3.687983
165.300000 4.006475
165.320000 4.226958
165.340000 4.571539
165.360000 5.066264
165.380000 5.537603
165.400000 5.909042
165.420000 6.317143
165.440000 6.761483
165.460000 7.096206
165.480000 7.331826
165.500000 7.713334
165.520000 8.082841
165.540000 8.398211
165.560000 8.794212
165.580000 9.213445
165.600000 9.543854
165.620000 9.806151
165.640000 10.095380
165.660000 10.334580
165.680000 10.433380
165.700000 10.545110
165.720000 10.720610
165.740000 10.765210
165.760000 10.669790
165.780000 10.619090
165.800000 10.516250
165.820000 10.209430
165.840000 9.785902
165.860000 9.419770
165.880000 9.152670
165.900000 8.766625
165.920000 8.366899
165.940000 8.152676
165.960000 7.999577
165.980000 7.716905
166.000000 7.391873
166.020000 7.178042
166.040000 6.837970
166.060000 6.395869
166.080000 5.938366
166.100000 5.486561
166.120000 5.028581
166.140000 4.479397
166.160000 4.001140
166.180000 3.568968
166.200000 2.967327
166.220000 2.426139
166.240000 1.905256
166.260000 1.381782
166.280000 0.923060
166.300000 0.492722
166.320000 0.209280
166.340000 0.026550
166.360000 -0.229235
166.380000 -0.407008
166.400000 -0.543625
166.420000 -0.809156
166.440000 -1.053599
166.460000 -1.347054
166.480000 -1.570772
166.500000 -1.821362
166.520000 -2.108739
166.540000 -2.193081
166.560000 -2.395318
166.580000 -2.644396
166.600000 -2.883671
166.620000 -3.206645
166.640000 -3.506891
166.660000 -4.019792
166.680000 -4.479285
166.700000 -4.835768
166.720000 -5.295891
166.740000 -5.757120
166.760000 -6.116040
166.780000 -6.507294
166.800000 -6.949409
166.820000 -7.465951
166.840000 -7.946504
166.860000 -8.351776
166.880000 -8.921279
166.900000 -9.432135
166.920000 -9.892384
166.940000 -10.266890
166.960000 -10.360950
166.980000 -10.517140
167.000000 -10.629170
167.020000 -10.665410
167.040000 -10.703770
167.060000 -10.690370
167.080000 -10.822190
167.100000 -10.708400
167.120000 -10.306250
167.140000 -9.962149
167.160000 -9.662561
167.180000 -9.149295
167.200000 -8.479136
167.220000 -7.857849
167.240000 -7.305108
167.260000 -6.881464
167.280000 -6.481556
167.300000 -6.109795
167.320000 -5.667148
167.340000 -5.137163
167.360000 -4.746945
167.380000 -4.235024
167.400000 -3.539883
167.420000 -2.929406
167.440000 -2.480276
167.460000 -2.015953
167.480000 -1.589536
167.500000 -1.308559
167.520000 -1.121053
167.540000 -0.896551
167.560000 -0.564686
167.580000 -0.327231
167.600000 -0.062945
167.620000 0.291382
167.640000 0.570469
167.660000 0.802729
167.680000 0.977281
167.700000 1.231834
167.720000 1.329872
167.740000 1.484497
167.760000 1.814024
167.780000 1.978270
167.800000 2.251237
167.820000 2.604528
167.840000 2.918862
167.860000 3.210888
167.880000 3.410310
167.900000 3.696777
167.920000 4.048891
167.940000 4.294972
167.960000 4.605623
167.980000 5.108036
168.000000 5.571897
168.020000 5.952145
168.040000 6.397662
168.060000 6.824569
168.080000 7.178560
168.100000 7.505384
168.120000 7.838118
168.140000 8.195834
168.160000 8.610208
168.180000 8.962140
168.200000 9.379385
168.220000 9.773257
168.240000 9.992536
168.260000 10.331770
168.280000 10.567470
168.300000 10.616060
168.320000 10.762230
168.340000 10.836480
168.360000 10.810040
168.380000 10.804090
168.400000 10.627870
168.420000 10.459590
168.440000 10.199740
168.460000 9.755109
168.480000 9.377508
168.500000 9.077010
168.520000 8.692982
168.540000 8.330939
168.560000 8.092139
168.580000 7.847234
168.600000 7.563820
168.620000 7.291721
168.640000 6.947434
168.660000 6.602125
168.680000 6.168623
168.700000 5.672456
168.720000 5.218592
168.740000 4.692276
168.760000 4.165903
168.780000 3.715807
168.800000 3.267335
168.820000 2.685047
168.840000 2.157597
168.860000 1.672478
168.880000 1.167139
168.900000 0.726985
168.920000 0.312429
168.940000 0.017826
168.960000 -0.144837
168.980000 -0.398256
169.000000 -0.592160
169.020000 -0.747542
169.040000 -1.020901
169.060000 -1.268089
169.080000 -1.522152
169.100000 -1.826151
169.120000 -2.052599
169.140000 -2.249963
169.160000 -2.462954
169.180000 -2.593087
169.200000 -2.846856
169.220000 -3.099575
169.240000 -3.357531
169.260000 -3.768180
169.280000 -4.211904
169.300000 -4.645547
169.320000 -5.066138
169.340000 -5.486785
169.360000 -5.950562
169.380000 -6.316232
169.400000 -6.711715
169.420000 -7.137124
169.440000 -7.660696
169.460000 -8.115805
169.480000 -8.579400
169.500000 -9.110842
169.520000 -9.677446
169.540000 -10.132950
169.560000 -10.281800
169.580000 -10.358300
169.600000 -10.512610
169.620000 -10.609310
169.640000 -10.567330
169.660000 -10.540360
169.680000 -10.683420
169.700000 -10.768240
169.720000 -10.463340
169.740000 -10.026760
169.760000 -9.769588
169.780000 -9.370745
169.800000 -8.699605
169.820000 -8.015499
169.840000 -7.405386
169.860000 -7.029410
169.880000 -6.598148
169.900000 -6.277289
169.920000 -5.900808
169.940000 -5.369633
169.960000 -4.985927
169.980000 -4.512067
170.000000 -3.827036
170.020000 -3.147873
170.040000 -2.631527
170.060000 -2.200167
170.080000 -1.768583
170.100000 -1.371266
170.120000 -1.247616
170.140000 -1.092767
170.160000 -0.723078
170.180000 -0.459535
170.200000 -0.218901
170.220000 0.121591
170.240000 0.445895
170.260000 0.692088
170.280000 0.830260
170.300000 1.022764
170.320000 1.173986
170.340000 1.258847
170.360000 1.521102
170.380000 1.766497
170.400000 2.008237
170.420000 2.320246
170.440000 2.688408
170.460000 2.986834
170.480000 3.182447
170.500000 3.418880
170.520000 3.774565
170.540000 3.998171
170.560000 4.283252
170.580000 4.765037
170.600000 5.283624
170.620000 5.748186
170.640000 6.146960
170.660000 6.599240
170.680000 7.038344
170.700000 7.340971
170.720000 7.640685
170.740000 8.064020
170.760000 8.437868
170.780000 8.838533
170.800000 9.308948
170.820000 9.709290
170.840000 10.020880
170.860000 10.327860
170.880000 10.590680
170.900000 10.709690
170.920000 10.821790
170.940000 10.906440
170.960000 10.962590
170.980000 10.948660
171.000000 10.839040
171.020000 10.724910
171.040000 10.489430
171.060000 10.053860
171.080000 9.642844
171.100000 9.299650
171.120000 8.895918
171.140000 8.485340
171.160000 8.187194
171.180000 7.972845
171.200000 7.730404
171.220000 7.401591
171.240000 7.114662
171.260000 6.806420
171.280000 6.350597
171.300000 5.870491
171.320000 5.383832
171.340000 4.914201
171.360000 4.405669
171.380000 3.915369
171.400000 3.498657
171.420000 2.999955
171.440000 2.474927
171.460000 1.949451
171.480000 1.428833
171.500000 0.942146
171.520000 0.485833
171.540000 0.154135
171.560000 -0.078517
171.580000 -0.288035
171.600000 -0.475680
171.620000 -0.585075
171.640000 -0.835301
171.660000 -1.075529
171.680000 -1.324802
171.700000 -1.631168
171.720000 -1.848976
171.740000 -2.139700
171.760000 -2.319308
171.780000 -2.417513
171.800000 -2.676589
171.820000 -2.882901
171.840000 -3.173401
171.860000 -3.513375
171.880000 -3.921825
171.900000 -4.434390
171.920000 -4.870161
171.940000 -5.284842
171.960000 -5.718975
171.980000 -6.163428
172.000000 -6.519113
172.020000 -6.936834
172.040000 -7.380964
172.060000 -7.894776
172.080000 -8.395214
172.100000 -8.879451
172.120000 -9.456151
172.140000 -10.048520
172.160000 -10.300360
172.180000 -10.321970
172.200000 -10.472820
172.220000 -10.625030
172.240000 -10.575100
172.260000 -10.524780
172.280000 -10.666010
172.300000 -10.861810
172.320000 -10.648640
172.340000 -10.227080
172.360000 -9.997059
172.380000 -9.679057
172.400000 -9.047365
172.420000 -8.309612
172.440000 -7.722156
172.460000 -7.264022
172.480000 -6.828405
172.500000 -6.556460
172.520000 -6.190258
172.540000 -5.675816
172.560000 -5.303719
172.580000 -4.861143
172.600000 -4.250498
172.620000 -3.500870
172.640000 -2.933397
172.660000 -2.556469
172.680000 -2.065931
172.700000 -1.687658
172.720000 -1.553197
172.740000 -1.432642
172.760000 -1.125030
172.780000 -0.809114
172.800000 -0.564168
172.820000 -0.241012
172.840000 0.160563
172.860000 0.443249
172.880000 0.617016
172.900000 0.826913
172.920000 1.018955
172.940000 1.116124
172.960000 1.340458
172.980000 1.696396
173.000000 1.910437
173.020000 2.247876
173.040000 2.701193
173.060000 2.994004
173.080000 3.256917
173.100000 3.467360
173.120000 3.778304
173.140000 4.140011
173.160000 4.363561
173.180000 4.794613
173.200000 5.385989
173.220000 5.863490
173.240000 6.299036
173.260000 6.767505
173.280000 7.193487
173.300000 7.510874
173.320000 7.825431
173.340000 8.175011
173.360000 8.540471
173.380000 8.980779
173.400000 9.374161
173.420000 9.807328
173.440000 10.149920
173.460000 10.379450
173.480000 10.682150
173.500000 10.768280
173.520000 10.810490
173.540000 10.936220
173.560000 10.984040
173.580000 10.935030
173.600000 10.895960
173.620000 10.789090
173.640000 10.560850
173.660000 10.234430
173.680000 9.705551
173.700000 9.337767
173.720000 9.015395
173.740000 8.492608
173.760000 8.200581
173.780000 7.979818
173.800000 7.758355
173.820000 7.496758
173.840000 7.186037
173.860000 6.848444
173.880000 6.484735
173.900000 6.025985
173.920000 5.420451
173.940000 5.013919
173.960000 4.491202
173.980000 4.014751
174.000000 3.632711
174.020000 3.058657
174.040000 2.598955
174.060000 2.090423
174.080000 1.525541
174.100000 1.011085
174.120000 0.522872
174.140000 0.165030
174.160000 -0.057274
174.180000 -0.274802
174.200000 -0.505984
174.220000 -0.583394
174.240000 -0.739350
174.260000 -1.005806
174.280000 -1.289584
174.300000 -1.549991
174.320000 -1.749287
174.340000 -2.042965
174.360000 -2.214422
174.380000 -2.377590
174.400000 -2.494266
174.420000 -2.677766
174.440000 -3.027318
174.460000 -3.322985
174.480000 -3.726618
174.500000 -4.226398
174.520000 -4.680121
174.540000 -5.161935
174.560000 -5.611807
174.580000 -5.985739
174.600000 -6.386221
174.620000 -6.825227
174.640000 -7.283683
174.660000 -7.799091
174.680000 -8.285820
174.700000 -8.818536
174.720000 -9.466164
174.740000 -10.041160
174.760000 -10.332200
174.780000 -10.385820
174.800000 -10.510590
174.820000 -10.705480
174.840000 -10.705430
174.860000 -10.618490
174.880000 -10.793850
174.900000 -11.028200
174.920000 -10.770140
174.940000 -10.350380
174.960000 -10.172930
174.980000 -9.840964
175.000000 -9.195548
175.020000 -8.433415
175.040000 -7.897871
175.060000 -7.433911
175.080000 -6.925407
175.100000 -6.688008
175.120000 -6.390730
175.140000 -5.846041
175.160000 -5.380359
175.180000 -4.980465
175.200000 -4.364961
175.220000 -3.542081
175.240000 -2.934195
175.260000 -2.621066
175.280000 -2.100057
175.300000 -1.654638
175.320000 -1.557650
175.340000 -1.430248
175.360000 -1.087207
175.380000 -0.732852
175.400000 -0.532058
175.420000 -0.182310
175.440000 0.288217
175.460000 0.498464
175.480000 0.650148
175.500000 0.855046
175.520000 1.035549
175.540000 1.099012
175.560000 1.267375
175.580000 1.670209
175.600000 1.887892
175.620000 2.109201
175.640000 2.561846
175.660000 2.911678
175.680000 3.053448
175.700000 3.236318
175.720000 3.572007
175.740000 3.848755
175.760000 4.070008
175.780000 4.442302
175.800000 5.049278
175.820000 5.513293
175.840000 5.860297
175.860000 6.382062
175.880000 6.836471
175.900000 7.043105
175.920000 7.370896
175.940000 7.811596
175.960000 8.167029
175.980000 8.566447
176.000000 9.025394
176.020000 9.528268
176.040000 9.902438
176.060000 10.116410
176.080000 10.472150
176.100000 10.679770
176.120000 10.698870
176.140000 10.881550
176.160000 11.075960
176.180000 11.080990
176.200000 11.053030
176.220000 11.035910
176.240000 10.922780
176.260000 10.530990
176.280000 10.024530
176.300000 9.689125
176.320000 9.343312
176.340000 8.853012
176.360000 8.464965
176.380000 8.311180
176.400000 8.131713
176.420000 7.759419
176.440000 7.490961
176.460000 7.201189
176.480000 6.756204
176.500000 6.254155
176.520000 5.697732
176.540000 5.221827
176.560000 4.655937
176.580000 4.077752
176.600000 3.689607
176.620000 3.138434
176.640000 2.503270
176.660000 1.967935
176.680000 1.451365
176.700000 0.868125
176.720000 0.323604
176.740000 -0.057358
176.760000 -0.241628
176.780000 -0.483634
176.800000 -0.727461
176.820000 -0.850676
176.840000 -0.935789
176.860000 -1.210423
176.880000 -1.563672
176.900000 -1.725313
176.920000 -1.912020
176.940000 -2.190715
176.960000 -2.293051
176.980000 -2.356598
177.000000 -2.462940
177.020000 -2.606166
177.040000 -2.874751
177.060000 -3.095920
177.080000 -3.488617
177.100000 -4.004137
177.120000 -4.344530
177.140000 -4.739495
177.160000 -5.189620
177.180000 -5.553315
177.200000 -5.870337
177.220000 -6.211109
177.240000 -6.668053
177.260000 -7.195826
177.280000 -7.642561
177.300000 -8.116659
177.320000 -8.724433
177.340000 -9.278266
177.360000 -9.648221
177.380000 -9.788661
177.400000 -9.890494
177.420000 -10.074120
177.440000 -10.205260
177.460000 -10.243880
177.480000 -10.324930
177.500000 -10.602190
177.520000 -10.695380
177.540000 -10.373480
177.560000 -10.087030
177.580000 -9.900128
177.600000 -9.521267
177.620000 -8.943964
177.640000 -8.325043
177.660000 -7.922306
177.680000 -7.631302
177.700000 -7.330538
177.720000 -7.067513
177.740000 -6.656906
177.760000 -6.205844
177.780000 -5.775632
177.800000 -5.261569
177.820000 -4.538883
177.840000 -3.857031
177.860000 -3.439227
177.880000 -3.034389
177.900000 -2.535604
177.920000 -2.253786
177.940000 -2.075103
177.960000 -1.780696
177.980000 -1.376419
178.000000 -0.963207
178.020000 -0.637153
178.040000 -0.221995
178.060000 0.248098
178.080000 0.463595
178.100000 0.731340
178.120000 1.031880
178.140000 1.245179
178.160000 1.507028
178.180000 1.869477
178.200000 2.238942
178.220000 2.527958
178.240000 2.950411
178.260000 3.365807
178.280000 3.620346
178.300000 3.836320
178.320000 4.134088
178.340000 4.471891
178.360000 4.745419
178.380000 5.030317
178.400000 5.524776
178.420000 6.035521
178.440000 6.340822
178.460000 6.721294
178.480000 7.127923
178.500000 7.386384
178.520000 7.634453
178.540000 7.886234
178.560000 8.222203
178.580000 8.560860
178.600000 8.853908
178.620000 9.253186
178.640000 9.531265
178.660000 9.714079
178.680000 9.916582
178.700000 10.060480
178.720000 10.056250
178.740000 10.109090
178.760000 10.242620
178.780000 10.281540
178.800000 10.178460
178.820000 10.117880
178.840000 9.993138
178.860000 9.716964
178.880000 9.307519
178.900000 8.885290
178.920000 8.653156
178.940000 8.340265
178.960000 7.957469
178.980000 7.781026
179.000000 7.684179
179.020000 7.501309
179.040000 7.260381
179.060000 6.960793
179.080000 6.710007
179.100000 6.394427
179.120000 5.994645
179.140000 5.605968
179.160000 5.240872
179.180000 4.893056
179.200000 4.503175
179.220000 4.071801
179.240000 3.552486
179.260000 3.015191
179.280000 2.525143
179.300000 1.890566
179.320000 1.305450
179.340000 0.933926
179.360000 0.558846
179.380000 0.303271
179.400000 0.045917
179.420000 -0.196285
179.440000 -0.330493
179.460000 -0.650582
179.480000 -1.047074
179.500000 -1.296110
179.520000 -1.590502
179.540000 -1.883999
179.560000 -2.136844
179.580000 -2.345718
179.600000 -2.456709
179.620000 -2.656074
179.640000 -2.982283
179.660000 -3.273399
179.680000 -3.646645
179.700000 -4.110604
179.720000 -4.592334
179.740000 -5.020515
179.760000 -5.409976
179.780000 -5.813315
179.800000 -6.179770
179.820000 -6.581316
179.840000 -6.971800
179.860000 -7.441487
179.880000 -7.973321
179.900000 -8.428080
179.920000 -8.946289
179.940000 -9.500010
179.960000 -9.970691
179.980000 -10.153920