90 Deg Fixed Reg 13 13-Apr-2018
Time(s) LoadCell(N)
0.000000 -0.312233
0.020000 -0.257592
0.040000 -0.236601
0.060000 -0.226084
0.080000 -0.257186
0.100000 -0.264313
0.120000 -0.239261
0.140000 -0.190404
0.160000 -0.198638
0.180000 -0.317428
0.200000 -0.181820
0.220000 -0.137989
0.240000 -0.254525
0.260000 -0.217024
0.280000 -0.185713
0.300000 -0.133592
0.320000 -0.198582
0.340000 -0.203147
0.360000 -0.146629
0.380000 -0.177031
0.400000 -0.177311
0.420000 -0.191538
0.440000 -0.169581
0.460000 -0.205079
0.480000 -0.178879
0.500000 -0.191440
0.520000 -0.222934
0.540000 -0.212179
0.560000 -0.269075
0.580000 -0.157958
0.600000 -0.271945
0.620000 -0.294995
0.640000 -0.185909
0.660000 -0.227009
0.680000 -0.284296
0.700000 -0.335815
0.720000 -0.193610
0.740000 -0.257382
0.760000 -0.362463
0.780000 -0.246277
0.800000 -0.276398
0.820000 -0.315328
0.840000 -0.278401
0.860000 -0.350630
0.880000 -0.291326
0.900000 -0.261807
0.920000 -0.369339
0.940000 -0.255183
0.960000 -0.291172
0.980000 -0.328309
1.000000 -0.233282
1.020000 -0.279773
1.040000 -0.287083
1.060000 -0.304629
1.080000 -0.182982
1.100000 -0.224460
1.120000 -0.317022
1.140000 -0.203777
1.160000 -0.149346
1.180000 -0.187491
1.200000 -0.262129
1.220000 -0.155745
1.240000 -0.131408
1.260000 -0.145481
1.280000 -0.241628
1.300000 -0.170169
1.320000 -0.082662
1.340000 -0.205205
1.360000 -0.189003
1.380000 -0.204967
1.400000 -0.125834
1.420000 -0.179355
1.440000 -0.259146
1.460000 -0.154611
1.480000 -0.225076
1.500000 -0.188807
1.520000 -0.213439
1.540000 -0.221225
1.560000 -0.236615
1.580000 -0.202895
1.600000 -0.211353
1.620000 -0.317722
1.640000 -0.197223
1.660000 -0.275950
1.680000 -0.238659
1.700000 -0.285795
1.720000 -0.311071
1.740000 -0.219265
1.760000 -0.306758
1.780000 -0.312317
1.800000 -0.315342
1.820000 -0.283022
1.840000 -0.335745
1.860000 -0.311673
1.880000 -0.342564
1.900000 -0.334106
1.920000 -0.310245
1.940000 -0.402037
1.960000 -0.259776
1.980000 -0.400426
2.000000 -0.381830
2.020000 -0.291746
2.040000 -0.396323
2.060000 -0.382348
2.080000 -0.451665
2.100000 -0.305469
2.120000 -0.389252
2.140000 -0.488872
2.160000 -0.394657
2.180000 -0.370669
2.200000 -0.378161
2.220000 -0.587595
2.240000 -0.401519
2.260000 -0.335633
2.280000 -0.466494
2.300000 -0.551200
2.320000 -0.441680
2.340000 -0.275418
2.360000 -0.559658
2.380000 -0.542210
2.400000 -0.400370
2.420000 -0.344385
2.440000 -0.561731
2.460000 -0.600324
2.480000 -0.286649
2.500000 -0.486673
2.520000 -0.584262
2.540000 -0.481520
2.560000 -0.355658
2.580000 -0.536637
2.600000 -0.666112
2.620000 -0.368611
2.640000 -0.460193
2.660000 -0.638862
2.680000 -0.671139
2.700000 -0.358360
2.720000 -0.479153
2.740000 -0.869749
2.760000 -0.532366
2.780000 -0.406140
2.800000 -0.654741
2.820000 -0.884453
2.840000 -0.504835
2.860000 -0.407274
2.880000 -0.890110
2.900000 -0.782438
2.920000 -0.449872
2.940000 -0.523068
2.960000 -0.938492
2.980000 -0.654531
3.000000 -0.367504
3.020000 -0.721383
3.040000 -0.802575
3.060000 -0.559729
3.080000 -0.309166
3.100000 -0.796442
3.120000 -0.722560
3.140000 -0.217514
3.160000 -0.507622
3.180000 -0.776991
3.200000 -0.474588
3.220000 -0.117936
3.240000 -0.649168
3.260000 -0.689890
3.280000 -0.125232
3.300000 -0.258726
3.320000 -0.597608
3.340000 -0.507958
3.360000 0.029435
3.380000 -0.252075
3.400000 -0.623514
3.420000 -0.121591
3.440000 -0.005573
3.460000 -0.256402
3.480000 -0.267898
3.500000 -0.122431
3.520000 0.158938
3.540000 0.011889
3.560000 -0.468469
3.580000 0.375626
3.600000 0.363695
3.620000 -0.515800
3.640000 0.403717
3.660000 0.535965
3.680000 -0.212221
3.700000 0.326545
3.720000 0.571197
3.740000 0.195123
3.760000 0.378399
3.780000 0.502833
3.800000 0.461089
3.820000 0.708290
3.840000 0.437395
3.860000 0.482654
3.880000 1.098746
3.900000 0.772804
3.920000 0.366398
3.940000 1.237155
3.960000 1.316302
3.980000 0.524230
4.000000 1.218783
4.020000 1.496596
4.040000 1.097458
4.060000 1.347950
4.080000 1.368829
4.100000 1.619993
4.120000 1.709825
4.140000 1.341999
4.160000 1.846484
4.180000 2.089610
4.200000 1.579888
4.220000 1.970078
4.240000 2.202015
4.260000 1.997860
4.280000 2.140863
4.300000 2.153508
4.320000 2.400177
4.340000 2.496282
4.360000 2.176473
4.380000 2.632619
4.400000 2.960984
4.420000 2.471384
4.440000 2.687218
4.460000 3.261146
4.480000 2.920430
4.500000 2.810392
4.520000 3.199139
4.540000 3.159706
4.560000 3.103048
4.580000 3.117205
4.600000 3.084690
4.620000 3.330211
4.640000 3.298563
4.660000 2.906399
4.680000 3.365009
4.700000 3.515867
4.720000 3.015233
4.740000 3.307203
4.760000 3.538679
4.780000 3.266929
4.800000 3.346104
4.820000 3.426036
4.840000 3.446214
4.860000 3.445710
4.880000 3.256609
4.900000 3.355165
4.920000 3.409974
4.940000 2.927950
4.960000 2.815363
4.980000 2.895420
5.000000 2.485121
5.020000 2.115222
5.040000 2.016149
5.060000 1.907188
5.080000 1.696788
5.100000 1.380494
5.120000 1.261437
5.140000 1.445245
5.160000 1.201853
5.180000 0.781276
5.200000 1.081130
5.220000 1.000330
5.240000 0.611275
5.260000 0.697592
5.280000 0.582624
5.300000 0.435463
5.320000 0.375374
5.340000 0.067706
5.360000 0.051210
5.380000 -0.040470
5.400000 -0.485273
5.420000 -0.536189
5.440000 -0.546411
5.460000 -1.024108
5.480000 -1.208687
5.500000 -1.222508
5.520000 -1.516663
5.540000 -1.832873
5.560000 -2.046872
5.580000 -2.208401
5.600000 -2.453348
5.620000 -2.871558
5.640000 -3.108971
5.660000 -3.234792
5.680000 -3.552724
5.700000 -4.056411
5.720000 -4.186530
5.740000 -4.367846
5.760000 -4.955063
5.780000 -5.270979
5.800000 -5.492918
5.820000 -5.986733
5.840000 -6.391360
5.860000 -6.757128
5.880000 -6.991195
5.900000 -7.099721
5.920000 -7.587402
5.940000 -7.825291
5.960000 -7.748819
5.980000 -8.291743
6.000000 -8.480705
6.020000 -8.290189
6.040000 -8.482063
6.060000 -8.540905
6.080000 -8.488393
6.100000 -8.253696
6.120000 -8.059777
6.140000 -8.225647
6.160000 -8.162534
6.180000 -8.020834
6.200000 -8.016157
6.220000 -7.931297
6.240000 -7.752124
6.260000 -7.453278
6.280000 -7.200881
6.300000 -6.866677
6.320000 -6.256046
6.340000 -6.028785
6.360000 -5.757190
6.380000 -5.328113
6.400000 -5.159470
6.420000 -4.892258
6.440000 -4.686913
6.460000 -4.315165
6.480000 -3.907653
6.500000 -3.643368
6.520000 -3.119894
6.540000 -2.683703
6.560000 -2.442271
6.580000 -2.076895
6.600000 -1.722386
6.620000 -1.600109
6.640000 -1.326833
6.660000 -1.011323
6.680000 -0.774750
6.700000 -0.397864
6.720000 -0.208538
6.740000 0.192210
6.760000 0.454143
6.780000 0.546551
6.800000 0.785379
6.820000 1.039162
6.840000 1.214064
6.860000 1.339352
6.880000 1.756106
6.900000 2.005870
6.920000 2.228510
6.940000 2.540141
6.960000 2.742111
6.980000 2.892689
7.000000 3.071414
7.020000 3.227874
7.040000 3.435502
7.060000 3.691203
7.080000 3.935632
7.100000 4.312043
7.120000 4.594743
7.140000 4.803939
7.160000 5.200668
7.180000 5.353025
7.200000 5.524790
7.220000 5.845005
7.240000 6.092234
7.260000 6.443173
7.280000 6.731152
7.300000 7.095114
7.320000 7.519262
7.340000 7.749827
7.360000 7.981387
7.380000 8.316081
7.400000 8.525165
7.420000 8.748071
7.440000 9.020955
7.460000 9.356405
7.480000 9.696337
7.500000 9.952640
7.520000 10.300920
7.540000 10.581320
7.560000 10.691720
7.580000 10.997420
7.600000 11.164550
7.620000 11.273060
7.640000 11.367440
7.660000 11.411790
7.680000 11.461070
7.700000 11.299390
7.720000 11.134360
7.740000 11.032930
7.760000 10.875950
7.780000 10.663610
7.800000 10.450920
7.820000 10.386170
7.840000 10.404460
7.860000 10.221160
7.880000 10.213570
7.900000 10.385370
7.920000 10.064710
7.940000 9.749144
7.960000 9.523353
7.980000 8.949215
8.000000 8.380777
8.020000 7.783701
8.040000 7.294928
8.060000 6.882472
8.080000 6.247980
8.100000 5.725122
8.120000 5.379155
8.140000 4.988811
8.160000 4.409884
8.180000 3.916728
8.200000 3.733676
8.220000 3.383717
8.240000 2.981135
8.260000 2.761478
8.280000 2.591239
8.300000 2.446682
8.320000 2.193165
8.340000 1.928516
8.360000 1.804474
8.380000 1.576429
8.400000 1.333667
8.420000 1.205074
8.440000 0.958376
8.460000 0.859093
8.480000 0.633344
8.500000 0.442927
8.520000 0.310861
8.540000 -0.059878
8.560000 -0.269089
8.580000 -0.466718
8.600000 -0.797240
8.620000 -1.133530
8.640000 -1.417197
8.660000 -1.584047
8.680000 -1.966241
8.700000 -2.326281
8.720000 -2.576675
8.740000 -2.914997
8.760000 -3.228112
8.780000 -3.618274
8.800000 -4.022075
8.820000 -4.217226
8.840000 -4.646163
8.860000 -5.081388
8.880000 -5.339259
8.900000 -5.800334
8.920000 -6.240516
8.940000 -6.591903
8.960000 -7.144671
8.980000 -7.521600
9.000000 -7.970856
9.020000 -8.477638
9.040000 -8.824851
9.060000 -9.394522
9.080000 -9.773986
9.100000 -10.197520
9.120000 -10.846850
9.140000 -11.467190
9.160000 -11.783220
9.180000 -11.817260
9.200000 -12.030010
9.220000 -12.211290
9.240000 -12.162150
9.260000 -12.049920
9.280000 -12.158870
9.300000 -12.239250
9.320000 -12.094680
9.340000 -11.676620
9.360000 -11.426590
9.380000 -11.267220
9.400000 -10.410440
9.420000 -9.733334
9.440000 -9.189541
9.460000 -8.682311
9.480000 -8.402286
9.500000 -7.973167
9.520000 -7.498943
9.540000 -7.191485
9.560000 -6.723002
9.580000 -6.174644
9.600000 -5.575874
9.620000 -4.527288
9.640000 -3.782729
9.660000 -3.153222
9.680000 -2.314364
9.700000 -1.928880
9.720000 -1.491625
9.740000 -1.244969
9.760000 -0.947818
9.780000 -0.471045
9.800000 -0.185643
9.820000 0.340058
9.840000 0.704327
9.860000 1.155040
9.880000 1.422784
9.900000 1.513302
9.920000 1.720412
9.940000 1.710189
9.960000 1.880288
9.980000 2.098839
10.000000 2.122042
10.020000 2.489000
10.040000 2.735404
10.060000 2.677024
10.080000 2.860398
10.100000 2.717549
10.120000 2.598101
10.140000 2.656271
10.160000 2.383793
10.180000 2.584559
10.200000 2.679656
10.220000 2.705618
10.240000 2.965941
10.260000 2.907939
10.280000 2.965941
10.300000 2.925317
10.320000 2.838510
10.340000 2.766421
10.360000 2.839000
10.380000 3.007097
10.400000 3.145660
10.420000 3.308365
10.440000 3.534016
10.460000 3.706075
10.480000 3.727528
10.500000 3.750620
10.520000 3.755969
10.540000 3.980205
10.560000 4.068020
10.580000 4.266700
10.600000 4.739677
10.620000 4.933162
10.640000 5.303257
10.660000 5.550990
10.680000 5.671965
10.700000 5.935201
10.720000 6.065698
10.740000 6.316232
10.760000 6.587267
10.780000 6.926765
10.800000 7.356136
10.820000 7.785157
10.840000 8.007167
10.860000 8.292023
10.880000 8.640735
10.900000 8.717348
10.920000 8.924723
10.940000 9.137379
10.960000 9.511674
10.980000 9.858412
11.000000 9.915546
11.020000 10.157370
11.040000 10.257190
11.060000 10.158830
11.080000 9.975312
11.100000 9.796321
11.120000 9.754619
11.140000 9.672349
11.160000 9.653024
11.180000 9.786953
11.200000 9.892650
11.220000 10.020000
11.240000 10.154330
11.260000 10.053280
11.280000 9.872247
11.300000 9.666958
11.320000 9.371683
11.340000 9.093534
11.360000 8.515909
11.380000 8.221754
11.400000 8.064777
11.420000 7.509543
11.440000 6.926975
11.460000 6.355260
11.480000 5.995625
11.500000 5.396785
11.520000 4.728237
11.540000 4.288993
11.560000 4.105913
11.580000 3.997387
11.600000 3.538861
11.620000 3.275037
11.640000 3.199853
11.660000 2.860398
11.680000 2.494014
11.700000 2.046046
11.720000 1.748306
11.740000 1.702697
11.760000 1.449839
11.780000 1.216738
11.800000 1.263426
11.820000 1.059019
11.840000 0.952187
11.860000 0.641424
11.880000 0.185699
11.900000 -0.062273
11.920000 -0.414570
11.940000 -0.709313
11.960000 -1.061805
11.980000 -1.340178
12.000000 -1.426999
12.020000 -1.733351
12.040000 -2.077497
12.060000 -2.524835
12.080000 -2.868912
12.100000 -3.101087
12.120000 -3.685840
12.140000 -4.044536
12.160000 -4.199624
12.180000 -4.473879
12.200000 -4.705047
12.220000 -5.004537
12.240000 -5.402457
12.260000 -5.567710
12.280000 -6.041458
12.300000 -6.573474
12.320000 -6.868539
12.340000 -7.320694
12.360000 -7.516027
12.380000 -7.820012
12.400000 -8.253668
12.420000 -8.466183
12.440000 -8.697869
12.460000 -9.194106
12.480000 -9.781547
12.500000 -10.126340
12.520000 -10.199840
12.540000 -10.234190
12.560000 -10.398580
12.580000 -10.285150
12.600000 -9.995225
12.620000 -9.845039
12.640000 -9.892034
12.660000 -9.964515
12.680000 -9.617862
12.700000 -9.394746
12.720000 -9.170510
12.740000 -8.760506
12.760000 -8.218702
12.780000 -7.466175
12.800000 -7.014538
12.820000 -6.883019
12.840000 -6.668193
12.860000 -6.292875
12.880000 -6.144523
12.900000 -5.937427
12.920000 -5.865016
12.940000 -5.400678
12.960000 -4.620523
12.980000 -4.307155
13.000000 -3.710178
13.020000 -3.199489
13.040000 -3.021422
13.060000 -2.849909
13.080000 -2.919562
13.100000 -2.847486
13.120000 -2.815811
13.140000 -2.690061
13.160000 -2.397880
13.180000 -2.191051
13.200000 -1.947308
13.220000 -1.735773
13.240000 -1.658811
13.260000 -1.784477
13.280000 -1.863372
13.300000 -1.798942
13.320000 -1.751303
13.340000 -1.800231
13.360000 -1.488880
13.380000 -1.182738
13.400000 -1.116824
13.420000 -1.007514
13.440000 -1.021560
13.460000 -0.968123
13.480000 -1.070501
13.500000 -1.128797
13.520000 -0.806356
13.540000 -0.691052
13.560000 -0.312611
13.580000 0.119085
13.600000 0.384266
13.620000 0.656282
13.640000 0.823566
13.660000 1.023996
13.680000 1.086983
13.700000 1.239886
13.720000 1.611885
13.740000 2.053482
13.760000 2.303260
13.780000 2.747390
13.800000 3.184898
13.820000 3.386994
13.840000 3.511638
13.860000 3.600097
13.880000 3.915929
13.900000 4.034524
13.920000 4.259852
13.940000 4.742072
13.960000 5.098948
13.980000 5.479027
14.000000 5.727881
14.020000 6.000022
14.040000 6.119261
14.060000 6.176017
14.080000 6.378645
14.100000 6.559373
14.120000 6.753375
14.140000 7.135177
14.160000 7.541751
14.180000 7.757123
14.200000 7.974455
14.220000 8.129192
14.240000 8.295818
14.260000 8.323713
14.280000 8.352098
14.300000 8.694242
14.320000 8.937032
14.340000 9.090915
14.360000 9.213277
14.380000 9.371781
14.400000 9.442904
14.420000 9.279415
14.440000 9.125000
14.460000 9.097357
14.480000 9.077822
14.500000 9.099849
14.520000 9.290981
14.540000 9.538197
14.560000 9.760528
14.580000 10.033120
14.600000 10.128120
14.620000 10.041590
14.640000 9.898461
14.660000 9.742968
14.680000 9.501774
14.700000 9.098631
14.720000 8.723859
14.740000 8.622517
14.760000 8.336820
14.780000 7.754280
14.800000 7.289984
14.820000 6.805370
14.840000 6.449950
14.860000 5.802603
14.880000 5.177843
14.900000 5.096497
14.920000 4.920335
14.940000 4.629541
14.960000 4.420863
14.980000 4.204679
15.000000 4.101768
15.020000 3.802824
15.040000 3.295874
15.060000 3.135382
15.080000 2.894034
15.100000 2.753258
15.120000 2.798461
15.140000 2.536878
15.160000 2.560207
15.180000 2.559269
15.200000 2.344542
15.220000 2.096388
15.240000 1.647692
15.260000 1.548870
15.280000 1.374528
15.300000 1.075220
15.320000 0.848800
15.340000 0.771263
15.360000 0.847736
15.380000 0.567052
15.400000 0.119407
15.420000 -0.086331
15.440000 -0.320789
15.460000 -0.770899
15.480000 -1.182626
15.500000 -1.478153
15.520000 -1.617823
15.540000 -1.795876
15.560000 -2.195700
15.580000 -2.418045
15.600000 -2.658861
15.620000 -3.147005
15.640000 -3.458145
15.660000 -3.930437
15.680000 -4.320221
15.700000 -4.548055
15.720000 -4.774252
15.740000 -5.012631
15.760000 -5.347774
15.780000 -5.657248
15.800000 -5.837947
15.820000 -6.357444
15.840000 -7.266417
15.860000 -7.556889
15.880000 -7.513870
15.900000 -7.847262
15.920000 -8.277222
15.940000 -8.238867
15.960000 -8.129766
15.980000 -8.377976
16.000000 -8.326304
16.020000 -8.205861
16.040000 -7.987604
16.060000 -7.957371
16.080000 -7.703476
16.100000 -6.860557
16.120000 -6.597490
16.140000 -6.753067
16.160000 -6.583277
16.180000 -6.415320
16.200000 -6.387607
16.220000 -6.215898
16.240000 -6.178831
16.260000 -5.958278
16.280000 -5.610575
16.300000 -5.119827
16.320000 -4.215055
16.340000 -4.002134
16.360000 -3.569430
16.380000 -3.063054
16.400000 -3.086776
16.420000 -3.051277
16.440000 -3.129122
16.460000 -2.865635
16.480000 -2.826832
16.500000 -2.787776
16.520000 -2.372842
16.540000 -2.330482
16.560000 -2.212168
16.580000 -2.181542
16.600000 -2.294073
16.620000 -2.270086
16.640000 -2.419222
16.660000 -2.344752
16.680000 -2.058397
16.700000 -2.159781
16.720000 -1.793061
16.740000 -1.487998
16.760000 -1.670518
16.780000 -1.536491
16.800000 -1.624545
16.820000 -1.551573
16.840000 -1.593863
16.860000 -1.668039
16.880000 -1.221332
16.900000 -1.062589
16.920000 -0.961681
16.940000 -0.646073
16.960000 -0.521443
16.980000 -0.499976
17.000000 -0.472320
17.020000 -0.298622
17.040000 -0.203063
17.060000 0.001610
17.080000 0.419303
17.100000 0.726425
17.120000 0.994729
17.140000 1.288450
17.160000 1.555228
17.180000 1.737944
17.200000 1.738966
17.220000 1.949087
17.240000 2.409293
17.260000 2.573735
17.280000 2.873071
17.300000 3.414133
17.320000 3.742008
17.340000 3.972181
17.360000 4.142350
17.380000 4.338075
17.400000 4.574004
17.420000 4.639413
17.440000 4.897131
17.460000 5.278569
17.480000 5.516682
17.500000 5.798514
17.520000 6.121053
17.540000 6.219287
17.560000 6.237645
17.580000 6.383098
17.600000 6.374654
17.620000 6.400617
17.640000 6.519029
17.660000 6.745688
17.680000 7.028374
17.700000 6.929524
17.720000 6.800259
17.740000 6.891141
17.760000 6.793957
17.780000 6.462203
17.800000 6.318431
17.820000 6.448872
17.840000 6.526563
17.860000 6.619853
17.880000 6.868539
17.900000 7.230638
17.920000 7.524093
17.940000 7.623909
17.960000 7.692945
17.980000 7.799945
18.000000 7.845820
18.020000 7.856799
18.040000 7.958785
18.060000 7.933397
18.080000 7.990881
18.100000 8.102726
18.120000 7.964989
18.140000 7.659519
18.160000 7.305528
18.180000 7.109229
18.200000 6.868539
18.220000 6.377315
18.240000 6.118925
18.260000 6.218363
18.280000 6.120563
18.300000 5.759697
18.320000 5.519021
18.340000 5.342872
18.360000 5.137891
18.380000 4.651400
18.400000 4.206219
18.420000 4.176518
18.440000 4.022579
18.460000 3.830299
18.480000 3.706243
18.500000 3.586850
18.520000 3.460778
18.540000 3.140213
18.560000 2.838832
18.580000 2.572474
18.600000 2.183517
18.620000 2.001977
18.640000 1.920324
18.660000 1.665938
18.680000 1.540608
18.700000 1.422812
18.720000 1.307662
18.740000 1.040940
18.760000 0.508308
18.780000 0.364017
18.800000 0.198834
18.820000 -0.188457
18.840000 -0.392164
18.860000 -0.552097
18.880000 -0.536329
18.900000 -0.691850
18.920000 -1.140770
18.940000 -1.271590
18.960000 -1.518119
18.980000 -1.915044
19.000000 -2.165369
19.020000 -2.522216
19.040000 -2.641245
19.060000 -2.706431
19.080000 -2.972102
19.100000 -3.103328
19.120000 -3.281913
19.140000 -3.593768
19.160000 -3.838631
19.180000 -4.273701
19.200000 -4.622567
19.220000 -4.881671
19.240000 -5.441582
19.260000 -5.907208
19.280000 -5.843493
19.300000 -5.960897
19.320000 -6.235265
19.340000 -6.466068
19.360000 -6.669607
19.380000 -6.753319
19.400000 -6.977191
19.420000 -6.753277
19.440000 -6.552399
19.460000 -6.493711
19.480000 -6.031670
19.500000 -5.517732
19.520000 -5.118917
19.540000 -5.347690
19.560000 -5.626146
19.580000 -5.557376
19.600000 -5.544745
19.620000 -5.696877
19.640000 -5.557880
19.660000 -5.398802
19.680000 -5.166724
19.700000 -4.648081
19.720000 -4.288587
19.740000 -3.688837
19.760000 -3.564375
19.780000 -3.387652
19.800000 -2.988234
19.820000 -3.205917
19.840000 -2.996482
19.860000 -2.846744
19.880000 -2.785438
19.900000 -2.559535
19.920000 -2.538502
19.940000 -2.348939
19.960000 -2.414362
19.980000 -2.454580
20.000000 -2.375825
20.020000 -2.454986
20.040000 -2.388764
20.060000 -2.205460
20.080000 -2.076895
20.100000 -1.801001
20.120000 -1.770964
20.140000 -1.569987
20.160000 -1.377385
20.180000 -1.610037
20.200000 -1.402605
20.220000 -1.349840
20.240000 -1.347516
20.260000 -1.114318
20.280000 -1.040590
20.300000 -0.719647
20.320000 -0.643175
20.340000 -0.612171
20.360000 -0.367868
20.380000 -0.471059
20.400000 -0.424344
20.420000 -0.240536
20.440000 -0.136617
20.460000 0.022027
20.480000 0.284198
20.500000 0.562221
20.520000 0.721089
20.540000 0.813680
20.560000 1.008564
20.580000 1.147520
20.600000 1.173958
20.620000 1.377805
20.640000 1.647160
20.660000 1.938892
20.680000 2.134449
20.700000 2.406324
20.720000 2.751367
20.740000 2.787860
20.760000 2.905320
20.780000 3.139303
20.800000 3.269702
20.820000 3.447475
20.840000 3.719210
20.860000 4.036526
20.880000 4.343172
20.900000 4.535550
20.920000 4.811837
20.940000 5.075366
20.960000 5.094719
20.980000 5.236503
21.000000 5.556928
21.020000 5.718863
21.040000 5.975600
21.060000 6.277555
21.080000 6.419899
21.100000 6.479554
21.120000 6.412505
21.140000 6.469807
21.160000 6.574454
21.180000 6.423470
21.200000 6.444965
21.220000 6.717891
21.240000 6.925071
21.260000 7.144111
21.280000 7.414180
21.300000 7.739352
21.320000 7.995488
21.340000 8.045382
21.360000 8.106045
21.380000 8.243292
21.400000 8.241723
21.420000 8.172533
21.440000 8.153040
21.460000 8.199321
21.480000 8.071316
21.500000 7.904466
21.520000 7.677892
21.540000 7.388442
21.560000 7.136662
21.580000 6.845139
21.600000 6.555130
21.620000 6.411749
21.640000 6.328331
21.660000 6.233094
21.680000 6.098746
21.700000 5.924642
21.720000 5.748130
21.740000 5.621679
21.760000 5.376550
21.780000 5.116998
21.800000 4.972539
21.820000 4.971531
21.840000 4.852474
21.860000 4.700846
21.880000 4.688243
21.900000 4.498301
21.920000 4.361755
21.940000 4.032633
21.960000 3.750886
21.980000 3.605349
22.000000 3.315087
22.020000 3.068642
22.040000 2.968854
22.060000 2.741383
22.080000 2.557351
22.100000 2.335425
22.120000 1.911291
22.140000 1.728702
22.160000 1.370159
22.180000 0.979914
22.200000 0.821185
22.220000 0.452631
22.240000 0.258362
22.260000 0.098150
22.280000 -0.199296
22.300000 -0.455711
22.320000 -0.797828
22.340000 -1.036123
22.360000 -1.367261
22.380000 -1.699056
22.400000 -1.982050
22.420000 -2.242611
22.440000 -2.397026
22.460000 -2.657601
22.480000 -2.976976
22.500000 -3.150575
22.520000 -3.472261
22.540000 -3.915845
22.560000 -4.271965
22.580000 -4.660250
22.600000 -5.131239
22.620000 -5.733818
22.640000 -6.264336
22.660000 -6.195271
22.680000 -6.412449
22.700000 -6.990172
22.720000 -7.214744
22.740000 -7.453572
22.760000 -7.492725
22.780000 -7.578888
22.800000 -7.591659
22.820000 -7.314462
22.840000 -7.110181
22.860000 -6.849326
22.880000 -6.159059
22.900000 -6.066244
22.920000 -6.486331
22.940000 -6.735535
22.960000 -6.567831
22.980000 -6.285565
23.000000 -6.757086
23.020000 -6.497254
23.040000 -6.021896
23.060000 -5.792408
23.080000 -5.242678
23.100000 -4.826064
23.120000 -4.129831
23.140000 -3.993424
23.160000 -3.926530
23.180000 -3.439591
23.200000 -3.380833
23.220000 -3.511288
23.240000 -3.171650
23.260000 -2.777176
23.280000 -2.857737
23.300000 -2.646230
23.320000 -2.511938
23.340000 -2.286862
23.360000 -2.487040
23.380000 -2.611320
23.400000 -2.133175
23.420000 -2.323621
23.440000 -2.167077
23.460000 -1.839748
23.480000 -1.589592
23.500000 -1.498948
23.520000 -1.464528
23.540000 -1.145965
23.560000 -1.278255
23.580000 -1.333919
23.600000 -1.074576
23.620000 -1.005862
23.640000 -0.970573
23.660000 -0.711805
23.680000 -0.484768
23.700000 -0.310931
23.720000 -0.423266
23.740000 -0.353907
23.760000 -0.049054
23.780000 -0.400594
23.800000 -0.246571
23.820000 0.089103
23.840000 0.120779
23.860000 0.401925
23.880000 0.520981
23.900000 0.864890
23.920000 0.953223
23.940000 0.879425
23.960000 1.247980
23.980000 1.321036
24.000000 1.416146
24.020000 1.789700
24.040000 2.178798
24.060000 2.403468
24.080000 2.694654
24.100000 3.034487
24.120000 3.265921
24.140000 3.320758
24.160000 3.472793
24.180000 3.852158
24.200000 3.985414
24.220000 4.225124
24.240000 4.562801
24.260000 4.945611
24.280000 5.194885
24.300000 5.211913
24.320000 5.525308
24.340000 5.686417
24.360000 5.663353
24.380000 5.863181
24.400000 6.088089
24.420000 6.350148
24.440000 6.578893
24.460000 6.731656
24.480000 6.828377
24.500000 6.751513
24.520000 6.617445
24.540000 6.628157
24.560000 6.514464
24.580000 6.410685
24.600000 6.514828
24.620000 6.717499
24.640000 6.926737
24.660000 7.013782
24.680000 7.291441
24.700000 7.595944
24.720000 7.597778
24.740000 7.622214
24.760000 7.671814
24.780000 7.855762
24.800000 7.894244
24.820000 7.721610
24.840000 7.805672
24.860000 7.866657
24.880000 7.679824
24.900000 7.433827
24.920000 7.098250
24.940000 6.823420
24.960000 6.639500
24.980000 6.251005
25.000000 6.066384
25.020000 6.005918
25.040000 5.928731
25.060000 5.922220
25.080000 5.677721
25.100000 5.437003
25.120000 5.330984
25.140000 5.138647
25.160000 4.897075
25.180000 4.668988
25.200000 4.634036
25.220000 4.720591
25.240000 4.652492
25.260000 4.538001
25.280000 4.411761
25.300000 4.345763
25.320000 4.187483
25.340000 3.781385
25.360000 3.537516
25.380000 3.416919
25.400000 3.253892
25.420000 3.169718
25.440000 2.868015
25.460000 2.792257
25.480000 2.688520
25.500000 2.359259
25.520000 2.033009
25.540000 1.618719
25.560000 1.331118
25.580000 1.171017
25.600000 0.767510
25.620000 0.478257
25.640000 0.365390
25.660000 0.155802
25.680000 -0.103611
25.700000 -0.574670
25.720000 -0.917921
25.740000 -1.141414
25.760000 -1.565058
25.780000 -1.989682
25.800000 -2.299171
25.820000 -2.398160
25.840000 -2.604962
25.860000 -2.966305
25.880000 -3.171300
25.900000 -3.459770
25.920000 -3.773263
25.940000 -4.180817
25.960000 -4.675192
25.980000 -4.954405
26.000000 -5.272477
26.020000 -5.891790
26.040000 -6.417855
26.060000 -6.480296
26.080000 -6.538284
26.100000 -6.952223
26.120000 -7.350773
26.140000 -7.533517
26.160000 -7.587654
26.180000 -7.685467
26.200000 -7.526879
26.220000 -7.265072
26.240000 -7.080130
26.260000 -6.742383
26.280000 -6.130758
26.300000 -5.715488
26.320000 -5.982546
26.340000 -6.405224
26.360000 -6.270609
26.380000 -6.053025
26.400000 -6.299596
26.420000 -6.154059
26.440000 -5.849038
26.460000 -5.551396
26.480000 -5.197405
26.500000 -4.614557
26.520000 -3.968456
26.540000 -3.998955
26.560000 -3.537838
26.580000 -3.252408
26.600000 -3.243978
26.620000 -3.061430
26.640000 -2.999241
26.660000 -2.590637
26.680000 -2.461008
26.700000 -2.478204
26.720000 -2.181752
26.740000 -2.031748
26.760000 -2.287996
26.780000 -2.144686
26.800000 -2.022394
26.820000 -2.079486
26.840000 -1.915548
26.860000 -1.789238
26.880000 -1.388868
26.900000 -1.556530
26.920000 -1.377049
26.940000 -1.083721
26.960000 -1.401723
26.980000 -1.248904
27.000000 -1.252013
27.020000 -1.068415
27.040000 -1.076229
27.060000 -1.062267
27.080000 -0.562053
27.100000 -0.659153
27.120000 -0.674724
27.140000 -0.434202
27.160000 -0.498394
27.180000 -0.479811
27.200000 -0.418519
27.220000 -0.327049
27.240000 0.056224
27.260000 0.005713
27.280000 0.294631
27.300000 0.740540
27.320000 0.546187
27.340000 0.908692
27.360000 1.038308
27.380000 1.179111
27.400000 1.434309
27.420000 1.546210
27.440000 2.233635
27.460000 2.355352
27.480000 2.566831
27.500000 3.173583
27.520000 3.320534
27.540000 3.488757
27.560000 3.714911
27.580000 4.064393
27.600000 4.393178
27.620000 4.551682
27.640000 4.959908
27.660000 5.498142
27.680000 5.644113
27.700000 5.905598
27.720000 6.191182
27.740000 6.304456
27.760000 6.486597
27.780000 6.454908
27.800000 6.825843
27.820000 7.049617
27.840000 7.055456
27.860000 7.370308
27.880000 7.303484
27.900000 7.150413
27.920000 6.977835
27.940000 6.953722
27.960000 6.863330
27.980000 6.562888
28.000000 6.634459
28.020000 6.837368
28.040000 6.980790
28.060000 7.000073
28.080000 7.198220
28.100000 7.495610
28.120000 7.573623
28.140000 7.378164
28.160000 7.412794
28.180000 7.615465
28.200000 7.453474
28.220000 7.298190
28.240000 7.272732
28.260000 7.285601
28.280000 7.113836
28.300000 6.730158
28.320000 6.468099
28.340000 6.218083
28.360000 5.910471
28.380000 5.598210
28.400000 5.408338
28.420000 5.302095
28.440000 5.250380
28.460000 5.243490
28.480000 5.095111
28.500000 4.933666
28.520000 4.773930
28.540000 4.723644
28.560000 4.618100
28.580000 4.421493
28.600000 4.417824
28.620000 4.588371
28.640000 4.678049
28.660000 4.534710
28.680000 4.507263
28.700000 4.518844
28.720000 4.393990
28.740000 4.092344
28.760000 3.843224
28.780000 3.793414
28.800000 3.713903
28.820000 3.546072
28.840000 3.313967
28.860000 3.314779
28.880000 3.151206
28.900000 2.851113
28.920000 2.510790
28.940000 2.190561
28.960000 2.011079
28.980000 1.591385
29.000000 1.385129
29.020000 1.187948
29.040000 0.866948
29.060000 0.745567
29.080000 0.362505
29.100000 -0.023890
29.120000 -0.342144
29.140000 -0.814422
29.160000 -1.186127
29.180000 -1.504270
29.200000 -1.920198
29.220000 -2.094596
29.240000 -2.322052
29.260000 -2.645922
29.280000 -2.904494
29.300000 -3.332801
29.320000 -3.609438
29.340000 -4.124972
29.360000 -4.662057
29.380000 -4.905351
29.400000 -5.457630
29.420000 -6.100735
29.440000 -6.694911
29.460000 -6.805832
29.480000 -6.827915
29.500000 -7.549915
29.520000 -7.967551
29.540000 -8.085670
29.560000 -8.248249
29.580000 -8.358511
29.600000 -8.260208
29.620000 -7.960017
29.640000 -7.744576
29.660000 -7.519794
29.680000 -6.805524
29.700000 -6.374010
29.720000 -6.808045
29.740000 -7.063060
29.760000 -6.902245
29.780000 -6.764368
29.800000 -6.820494
29.820000 -6.687560
29.840000 -6.295367
29.860000 -5.874090
29.880000 -5.456958
29.900000 -4.817410
29.920000 -4.227504
29.940000 -3.975640
29.960000 -3.660116
29.980000 -3.295832
30.000000 -3.075895
30.020000 -3.050549
30.040000 -2.699443
30.060000 -2.342623
30.080000 -2.326813
30.100000 -2.059321
30.120000 -1.907847
30.140000 -1.844621
30.160000 -1.885833
30.180000 -1.823798
30.200000 -1.759159
30.220000 -1.702613
30.240000 -1.588332
30.260000 -1.401149
30.280000 -1.159983
30.300000 -1.239522
30.320000 -0.977001
30.340000 -0.940956
30.360000 -1.138894
30.380000 -0.969271
30.400000 -0.978149
30.420000 -0.905948
30.440000 -0.896874
30.460000 -0.678925
30.480000 -0.475596
30.500000 -0.527829
30.520000 -0.437451
30.540000 -0.410047
30.560000 -0.412259
30.580000 -0.488311
30.600000 -0.447323
30.620000 -0.214504
30.640000 -0.144683
30.660000 -0.030975
30.680000 0.404837
30.700000 0.435449
30.720000 0.474336
30.740000 0.868209
30.760000 0.814940
30.780000 1.019529
30.800000 1.240698
30.820000 1.526829
30.840000 2.005842
30.860000 2.131985
30.880000 2.581072
30.900000 3.057887
30.920000 3.135816
30.940000 3.386098
30.960000 3.738409
30.980000 4.007497
31.000000 4.268156
31.020000 4.622987
31.040000 5.113553
31.060000 5.486743
31.080000 5.712701
31.100000 6.105818
31.120000 6.372330
31.140000 6.471110
31.160000 6.604926
31.180000 6.860907
31.200000 7.103124
31.220000 7.175829
31.240000 7.474241
31.260000 7.679880
31.280000 7.514346
31.300000 7.355352
31.320000 7.301201
31.340000 7.165929
31.360000 6.941525
31.380000 6.766595
31.400000 6.850839
31.420000 6.996922
31.440000 6.972864
31.460000 7.157373
31.480000 7.442887
31.500000 7.540575
31.520000 7.480038
31.540000 7.462716
31.560000 7.506238
31.580000 7.440339
31.600000 7.276219
31.620000 7.208485
31.640000 7.184847
31.660000 7.044912
31.680000 6.828167
31.700000 6.632946
31.720000 6.276729
31.740000 5.944107
31.760000 5.754291
31.780000 5.481870
31.800000 5.250030
31.820000 5.166052
31.840000 5.238463
31.860000 5.251794
31.880000 5.016580
31.900000 4.894261
31.920000 4.954601
31.940000 4.802412
31.960000 4.560686
31.980000 4.476484
32.000000 4.644454
32.020000 4.758638
32.040000 4.640520
32.060000 4.674324
32.080000 4.729049
32.100000 4.655783
32.120000 4.438885
32.140000 4.168060
32.160000 4.045320
32.180000 3.880025
32.200000 3.722431
32.220000 3.602170
32.240000 3.483631
32.260000 3.310662
32.280000 3.217385
32.300000 3.015625
32.320000 2.573791
32.340000 2.282227
32.360000 2.031734
32.380000 1.775515
32.400000 1.439042
32.420000 1.083650
32.440000 0.968347
32.460000 0.828397
32.480000 0.363023
32.500000 -0.113455
32.520000 -0.350462
32.540000 -0.715138
32.560000 -1.245417
32.580000 -1.715146
32.600000 -1.993841
32.620000 -2.174471
32.640000 -2.542591
32.660000 -2.903598
32.680000 -3.184562
32.700000 -3.501234
32.720000 -3.946023
32.740000 -4.535410
32.760000 -4.959530
32.780000 -5.330745
32.800000 -5.955352
32.820000 -6.696130
32.840000 -7.156420
32.860000 -7.193963
32.880000 -7.468821
32.900000 -8.036322
32.920000 -8.424271
32.940000 -8.566825
32.960000 -8.679594
32.980000 -8.628566
33.000000 -8.470132
33.020000 -8.299795
33.040000 -8.000445
33.060000 -7.503704
33.080000 -6.802359
33.100000 -6.676903
33.120000 -6.988478
33.140000 -7.044029
33.160000 -6.753039
33.180000 -6.680936
33.200000 -6.696046
33.220000 -6.372834
33.240000 -5.986201
33.260000 -5.564770
33.280000 -5.057526
33.300000 -4.321159
33.320000 -3.909810
33.340000 -3.661306
33.360000 -3.305873
33.380000 -3.026239
33.400000 -2.867791
33.420000 -2.868772
33.440000 -2.426139
33.460000 -2.238858
33.480000 -2.154292
33.500000 -1.972220
33.520000 -1.825787
33.540000 -1.800763
33.560000 -1.880148
33.580000 -1.821712
33.600000 -1.792305
33.620000 -1.734023
33.640000 -1.695738
33.660000 -1.372078
33.680000 -1.293631
33.700000 -1.350331
33.720000 -1.004265
33.740000 -1.095189
33.760000 -1.195873
33.780000 -1.131528
33.800000 -1.013368
33.820000 -0.941474
33.840000 -0.969663
33.860000 -0.638749
33.880000 -0.460151
33.900000 -0.468581
33.920000 -0.417552
33.940000 -0.288357
33.960000 -0.306996
33.980000 -0.360139
34.000000 -0.246697
34.020000 0.001582
34.040000 0.076528
34.060000 0.254553
34.080000 0.632784
34.100000 0.635011
34.120000 0.790056
34.140000 0.958376
34.160000 1.027175
34.180000 1.244913
34.200000 1.266016
34.220000 1.720216
34.240000 2.103894
34.260000 2.128694
34.280000 2.604332
34.300000 2.977214
34.320000 3.041657
34.340000 3.227398
34.360000 3.544476
34.380000 3.826714
34.400000 4.095929
34.420000 4.368924
34.440000 4.874096
34.460000 5.280571
34.480000 5.469127
34.500000 5.819295
34.520000 6.110677
34.540000 6.256984
34.560000 6.429646
34.580000 6.704476
34.600000 7.018837
34.620000 7.168393
34.640000 7.432903
34.660000 7.576689
34.680000 7.449945
34.700000 7.346628
34.720000 7.246042
34.740000 7.192633
34.760000 7.000773
34.780000 6.797206
34.800000 6.985915
34.820000 7.146730
34.840000 7.111189
34.860000 7.289340
34.880000 7.536122
34.900000 7.586352
34.920000 7.520326
34.940000 7.364566
34.960000 7.392377
34.980000 7.358825
35.000000 7.027393
35.020000 6.941077
35.040000 6.965610
35.060000 6.738896
35.080000 6.481402
35.100000 6.181632
35.120000 5.922164
35.140000 5.711651
35.160000 5.431360
35.180000 5.206228
35.200000 5.184046
35.220000 5.189746
35.240000 5.218074
35.260000 5.225790
35.280000 5.099872
35.300000 5.054193
35.320000 5.025822
35.340000 4.924326
35.360000 4.771703
35.380000 4.742604
35.400000 4.916232
35.420000 4.926006
35.440000 4.939113
35.460000 4.895017
35.480000 4.858860
35.500000 4.834312
35.520000 4.493890
35.540000 4.235234
35.560000 4.137421
35.580000 3.936248
35.600000 3.752412
35.620000 3.588097
35.640000 3.424817
35.660000 3.325197
35.680000 3.077212
35.700000 2.744114
35.720000 2.504362
35.740000 2.151463
35.760000 1.861243
35.780000 1.639542
35.800000 1.333751
35.820000 1.133699
35.840000 0.946207
35.860000 0.724590
35.880000 0.357800
35.900000 -0.042500
35.920000 -0.403003
35.940000 -0.782998
35.960000 -1.183999
35.980000 -1.620372
36.000000 -1.882318
36.020000 -2.088252
36.040000 -2.471384
36.060000 -2.801541
36.080000 -3.133267
36.100000 -3.503684
36.120000 -3.957449
36.140000 -4.518998
36.160000 -4.990296
36.180000 -5.286243
36.200000 -5.874272
36.220000 -6.780906
36.240000 -7.094441
36.260000 -7.095842
36.280000 -7.488832
36.300000 -8.142047
36.320000 -8.503964
36.340000 -8.565215
36.360000 -8.675113
36.380000 -8.765239
36.400000 -8.537642
36.420000 -8.188664
36.440000 -8.058013
36.460000 -7.468877
36.480000 -6.667381
36.500000 -6.625469
36.520000 -6.988940
36.540000 -7.000997
36.560000 -6.718983
36.580000 -6.621982
36.600000 -6.625637
36.620000 -6.371042
36.640000 -5.814380
36.660000 -5.487863
36.680000 -5.006133
36.700000 -4.161940
36.720000 -3.794758
36.740000 -3.596569
36.760000 -3.152788
36.780000 -2.821342
36.800000 -2.764110
36.820000 -2.660976
36.840000 -2.251993
36.860000 -2.009371
36.880000 -2.030782
36.900000 -1.781928
36.920000 -1.590838
36.940000 -1.704028
36.960000 -1.731222
36.980000 -1.674074
37.000000 -1.665420
37.020000 -1.686271
37.040000 -1.585363
37.060000 -1.273186
37.080000 -1.359951
37.100000 -1.279768
37.120000 -1.085541
37.140000 -1.193353
37.160000 -1.226331
37.180000 -1.329774
37.200000 -1.099390
37.220000 -1.054762
37.240000 -1.253287
37.260000 -0.758254
37.280000 -0.656772
37.300000 -0.882786
37.320000 -0.604651
37.340000 -0.624648
37.360000 -0.687103
37.380000 -0.654209
37.400000 -0.620307
37.420000 -0.296423
37.440000 -0.293861
37.460000 -0.073616
37.480000 0.353557
37.500000 0.285150
37.520000 0.473608
37.540000 0.697592
37.560000 0.819323
37.580000 0.984983
37.600000 1.150741
37.620000 1.729458
37.640000 2.019818
37.660000 2.182397
37.680000 2.736384
37.700000 3.129598
37.720000 3.292962
37.740000 3.462542
37.760000 3.893244
37.780000 4.323721
37.800000 4.447693
37.820000 4.906597
37.840000 5.516052
37.860000 5.752023
37.880000 6.120269
37.900000 6.477215
37.920000 6.653924
37.940000 6.980608
37.960000 7.029494
37.980000 7.322822
38.000000 7.732995
38.020000 7.681238
38.040000 7.952190
38.060000 8.133029
38.080000 7.779304
38.100000 7.621388
38.120000 7.551553
38.140000 7.357145
38.160000 7.065076
38.180000 6.883159
38.200000 7.021204
38.220000 7.123372
38.240000 7.054714
38.260000 7.139084
38.280000 7.401577
38.300000 7.441193
38.320000 7.160943
38.340000 7.092327
38.360000 7.167413
38.380000 6.970708
38.400000 6.703075
38.420000 6.658055
38.440000 6.662592
38.460000 6.501805
38.480000 6.152673
38.500000 5.945255
38.520000 5.789804
38.540000 5.441820
38.560000 5.223144
38.580000 5.148408
38.600000 5.096301
38.620000 5.150032
38.640000 5.231406
38.660000 5.238967
38.680000 5.187925
38.700000 5.187029
38.720000 5.112769
38.740000 5.078097
38.760000 4.972469
38.780000 4.909090
38.800000 5.193302
38.820000 5.221533
38.840000 5.117264
38.860000 5.124434
38.880000 5.200570
38.900000 5.075338
38.920000 4.615229
38.940000 4.417572
38.960000 4.359276
38.980000 4.113097
39.000000 3.853852
39.020000 3.645300
39.040000 3.586528
39.060000 3.478170
39.080000 3.049275
39.100000 2.702160
39.120000 2.504600
39.140000 2.099455
39.160000 1.773722
39.180000 1.457330
39.200000 1.187121
39.220000 1.028813
39.240000 0.747990
39.260000 0.524818
39.280000 0.108414
39.300000 -0.278989
39.320000 -0.561689
39.340000 -1.077685
39.360000 -1.541561
39.380000 -1.883411
39.400000 -2.136494
39.420000 -2.350759
39.440000 -2.794722
39.460000 -3.094366
39.480000 -3.384109
39.500000 -3.768082
39.520000 -4.306469
39.540000 -4.860442
39.560000 -5.229669
39.580000 -5.550486
39.600000 -6.349686
39.620000 -7.099217
39.640000 -7.133931
39.660000 -7.256852
39.680000 -7.724229
39.700000 -8.319022
39.720000 -8.565481
39.740000 -8.535640
39.760000 -8.603990
39.780000 -8.635848
39.800000 -8.317803
39.820000 -7.952022
39.840000 -7.712802
39.860000 -7.036285
39.880000 -6.404328
39.900000 -6.585545
39.920000 -7.023864
39.940000 -6.781676
39.960000 -6.454754
39.980000 -6.545776
40.000000 -6.482732
40.020000 -6.118799
40.040000 -5.524104
40.060000 -5.262969
40.080000 -4.729273
40.100000 -3.910552
40.120000 -3.730385
40.140000 -3.627362
40.160000 -3.102782
40.180000 -2.917433
40.200000 -3.004086
40.220000 -2.755736
40.240000 -2.452956
40.260000 -2.164780
40.280000 -2.279048
40.300000 -2.156280
40.320000 -1.770152
40.340000 -2.096696
40.360000 -2.167147
40.380000 -1.971100
40.400000 -1.914554
40.420000 -2.000199
40.440000 -1.817623
40.460000 -1.415026
40.480000 -1.540370
40.500000 -1.438314
40.520000 -1.187093
40.540000 -1.256900
40.560000 -1.347782
40.580000 -1.208813
40.600000 -1.008382
40.620000 -0.945983
40.640000 -0.940298
40.660000 -0.557922
40.680000 -0.335423
40.700000 -0.573788
40.720000 -0.348208
40.740000 -0.230915
40.760000 -0.338209
40.780000 -0.276595
40.800000 -0.190082
40.820000 0.152581
40.840000 0.201466
40.860000 0.341528
40.880000 0.721859
40.900000 0.790532
40.920000 0.800222
40.940000 1.047396
40.960000 1.261521
40.980000 1.286615
41.000000 1.576275
41.020000 2.021596
41.040000 2.247386
41.060000 2.397376
41.080000 2.785017
41.100000 3.127232
41.120000 3.139457
41.140000 3.340335
41.160000 3.644572
41.180000 3.975360
41.200000 4.189009
41.220000 4.459344
41.240000 5.025416
41.260000 5.317890
41.280000 5.476380
41.300000 5.800978
41.320000 6.093789
41.340000 6.234537
41.360000 6.408080
41.380000 6.733183
41.400000 7.053692
41.420000 7.297924
41.440000 7.441529
41.460000 7.614232
41.480000 7.487978
41.500000 7.315050
41.520000 7.325133
41.540000 7.182607
41.560000 7.012466
41.580000 6.959729
41.600000 7.121748
41.620000 7.300459
41.640000 7.276555
41.660000 7.408649
41.680000 7.678368
41.700000 7.730684
41.720000 7.489406
41.740000 7.441347
41.760000 7.520060
41.780000 7.381356
41.800000 7.051241
41.820000 6.963272
41.840000 6.981994
41.860000 6.729808
41.880000 6.372568
41.900000 6.047060
41.920000 5.845803
41.940000 5.607312
41.960000 5.308970
41.980000 5.158378
42.000000 5.141798
42.020000 5.206648
42.040000 5.187505
42.060000 5.195529
42.080000 5.093879
42.100000 4.987523
42.120000 5.084104
42.140000 4.884542
42.160000 4.808294
42.180000 4.832170
42.200000 4.915658
42.220000 5.109044
42.240000 4.968982
42.260000 4.867892
42.280000 4.934702
42.300000 4.791784
42.320000 4.468040
42.340000 4.239701
42.360000 4.047141
42.380000 3.985218
42.400000 3.798301
42.420000 3.527364
42.440000 3.400549
42.460000 3.237410
42.480000 2.988346
42.500000 2.599179
42.520000 2.298387
42.540000 1.984249
42.560000 1.657550
42.580000 1.523776
42.600000 1.167629
42.620000 0.901999
42.640000 0.817040
42.660000 0.501881
42.680000 0.180559
42.700000 -0.274942
42.720000 -0.626147
42.740000 -0.799676
42.760000 -1.292931
42.780000 -1.704448
42.800000 -1.858779
42.820000 -2.051423
42.840000 -2.469788
42.860000 -2.790339
42.880000 -3.117079
42.900000 -3.493938
42.920000 -3.946919
42.940000 -4.531741
42.960000 -4.913641
42.980000 -5.320215
43.000000 -6.130170
43.020000 -6.742985
43.040000 -6.925365
43.060000 -7.287058
43.080000 -7.711766
43.100000 -8.140563
43.120000 -8.533273
43.140000 -8.691217
43.160000 -8.692085
43.180000 -8.635288
43.200000 -8.496206
43.220000 -8.275051
43.240000 -8.004352
43.260000 -7.277675
43.280000 -6.767757
43.300000 -6.997090
43.320000 -7.251013
43.340000 -7.135037
43.360000 -6.787082
43.380000 -6.677435
43.400000 -6.702557
43.420000 -6.349882
43.440000 -5.645247
43.460000 -5.362757
43.480000 -4.767936
43.500000 -4.063777
43.520000 -3.817094
43.540000 -3.390439
43.560000 -3.218212
43.580000 -2.946490
43.600000 -2.760077
43.620000 -2.744184
43.640000 -2.344121
43.660000 -2.179428
43.680000 -2.092873
43.700000 -2.005044
43.720000 -1.816643
43.740000 -1.843179
43.760000 -2.022730
43.780000 -1.848514
43.800000 -1.772938
43.820000 -1.852169
43.840000 -1.595123
43.860000 -1.426173
43.880000 -1.377651
43.900000 -1.197134
43.920000 -1.256032
43.940000 -1.062785
43.960000 -1.127873
43.980000 -1.191000
44.000000 -0.819309
44.020000 -0.949428
44.040000 -0.714368
44.060000 -0.425016
44.080000 -0.441232
44.100000 -0.205401
44.120000 -0.259384
44.140000 -0.161137
44.160000 -0.099928
44.180000 -0.185363
44.200000 -0.005937
44.220000 0.193695
44.240000 0.306394
44.260000 0.472502
44.280000 0.695911
44.300000 0.836127
44.320000 0.885853
44.340000 0.963025
44.360000 1.159941
44.380000 1.211879
44.400000 1.470283
44.420000 1.774549
44.440000 1.973522
44.460000 2.337848
44.480000 2.530002
44.500000 2.789092
44.520000 3.000879
44.540000 3.093736
44.560000 3.462766
44.580000 3.700572
44.600000 3.964507
44.620000 4.387031
44.640000 4.772277
44.660000 5.117334
44.680000 5.471003
44.700000 5.745609
44.720000 6.005554
44.740000 6.310001
44.760000 6.486695
44.780000 6.759495
44.800000 7.135177
44.820000 7.389156
44.840000 7.630686
44.860000 7.706080
44.880000 7.593829
44.900000 7.584699
44.920000 7.530674
44.940000 7.290124
44.960000 7.218903
44.980000 7.216257
45.000000 7.251027
45.020000 7.372002
45.040000 7.421476
45.060000 7.573959
45.080000 7.740179
45.100000 7.712046
45.120000 7.634901
45.140000 7.511434
45.160000 7.498130
45.180000 7.333199
45.200000 7.097242
45.220000 6.952811
45.240000 6.859535
45.260000 6.733225
45.280000 6.369333
45.300000 6.021770
45.320000 5.883640
45.340000 5.664376
45.360000 5.361721
45.380000 5.239121
45.400000 5.187379
45.420000 5.289870
45.440000 5.356470
45.460000 5.158882
45.480000 5.192770
45.500000 5.213439
45.520000 5.064457
45.540000 5.007898
45.560000 4.875118
45.580000 4.867598
45.600000 5.030513
45.620000 4.957430
45.640000 4.883212
45.660000 4.868242
45.680000 4.769449
45.700000 4.676802
45.720000 4.279037
45.740000 3.998885
45.760000 3.969338
45.780000 3.731883
45.800000 3.555525
45.820000 3.330869
45.840000 3.212372
45.860000 3.158809
45.880000 2.811218
45.900000 2.427175
45.920000 2.186388
45.940000 1.964336
45.960000 1.668725
45.980000 1.330390
46.000000 1.101911
46.020000 1.053669
46.040000 0.782844
46.060000 0.501811
46.080000 0.210303
46.100000 -0.123482
46.120000 -0.364059
46.140000 -0.808176
46.160000 -1.229384
46.180000 -1.409663
46.200000 -1.770264
46.220000 -1.994808
46.240000 -2.281526
46.260000 -2.741355
46.280000 -3.008833
46.300000 -3.487034
46.320000 -3.974645
46.340000 -4.495473
46.360000 -5.075576
46.380000 -5.435687
46.400000 -6.132942
46.420000 -6.987736
46.440000 -7.159375
46.460000 -7.338086
46.480000 -7.916985
46.500000 -8.509734
46.520000 -8.882699
46.540000 -8.831377
46.560000 -9.022285
46.580000 -9.002316
46.600000 -8.728522
46.620000 -8.503236
46.640000 -8.063250
46.660000 -7.548683
46.680000 -6.958441
46.700000 -7.098236
46.720000 -7.649773
46.740000 -7.267509
46.760000 -6.712178
46.780000 -6.956760
46.800000 -6.754160
46.820000 -6.157784
46.840000 -5.636467
46.860000 -5.132612
46.880000 -4.718406
46.900000 -3.777268
46.920000 -3.527476
46.940000 -3.585576
46.960000 -2.902968
46.980000 -2.797593
47.000000 -2.834071
47.020000 -2.575303
47.040000 -2.214814
47.060000 -1.965078
47.080000 -2.118709
47.100000 -1.829288
47.120000 -1.562580
47.140000 -1.848626
47.160000 -1.921822
47.180000 -1.660547
47.200000 -1.616829
47.220000 -1.734443
47.240000 -1.513358
47.260000 -1.070683
47.280000 -1.246930
47.300000 -1.275077
47.320000 -0.829055
47.340000 -1.086367
47.360000 -1.195635
47.380000 -1.009559
47.400000 -0.891650
47.420000 -0.820709
47.440000 -0.840300
47.460000 -0.433936
47.480000 -0.237637
47.500000 -0.523838
47.520000 -0.323646
47.540000 -0.129839
47.560000 -0.333350
47.580000 -0.340758
47.600000 -0.028651
47.620000 0.148716
47.640000 0.181106
47.660000 0.414808
47.680000 0.760327
47.700000 0.780450
47.720000 0.741240
47.740000 0.993287
47.760000 1.207762
47.780000 1.181492
47.800000 1.417449
47.820000 1.977219
47.840000 2.145694
47.860000 2.285167
47.880000 2.763172
47.900000 3.062746
47.920000 3.093876
47.940000 3.260852
47.960000 3.711368
47.980000 4.023167
48.000000 4.192706
48.020000 4.590626
48.040000 5.195431
48.060000 5.492274
48.080000 5.603489
48.100000 6.055798
48.120000 6.371616
48.140000 6.408066
48.160000 6.652383
48.180000 6.997104
48.200000 7.354736
48.220000 7.495148
48.240000 7.647840
48.260000 7.808403
48.280000 7.646482
48.300000 7.406562
48.320000 7.392573
48.340000 7.303260
48.360000 7.019019
48.380000 6.974124
48.400000 7.192381
48.420000 7.309785
48.440000 7.270030
48.460000 7.393847
48.480000 7.686532
48.500000 7.637240
48.520000 7.362242
48.540000 7.309519
48.560000 7.456008
48.580000 7.231884
48.600000 6.880638
48.620000 6.965554
48.640000 6.978886
48.660000 6.688666
48.680000 6.297370
48.700000 6.043783
48.720000 5.932064
48.740000 5.626427
48.760000 5.260939
48.780000 5.256780
48.800000 5.327385
48.820000 5.261737
48.840000 5.302459
48.860000 5.301660
48.880000 5.161389
48.900000 5.159204
48.920000 5.041912
48.940000 4.859210
48.960000 4.857544
48.980000 4.742422
49.000000 4.974066
49.020000 5.073490
49.040000 4.755081
49.060000 4.870931
49.080000 4.927869
49.100000 4.584380
49.120000 4.277342
49.140000 4.029721
49.160000 3.997345
49.180000 3.867646
49.200000 3.494204
49.220000 3.415589
49.240000 3.439045
49.260000 3.192599
49.280000 2.814579
49.300000 2.450029
49.320000 2.250159
49.340000 1.922606
49.360000 1.552875
49.380000 1.366911
49.400000 1.119401
49.420000 0.989968
49.440000 0.791008
49.460000 0.437185
49.480000 0.151909
49.500000 -0.252327
49.520000 -0.578423
49.540000 -0.926435
49.560000 -1.406568
49.580000 -1.660127
49.600000 -1.905816
49.620000 -2.156448
49.640000 -2.550279
49.660000 -2.936940
49.680000 -3.312328
49.700000 -3.736308
49.720000 -4.342024
49.740000 -4.938987
49.760000 -5.320901
49.780000 -5.762091
49.800000 -6.504186
49.820000 -7.224939
49.840000 -7.397642
49.860000 -7.563932
49.880000 -8.152634
49.900000 -8.796341
49.920000 -9.056439
49.940000 -9.023419
49.960000 -9.090383
49.980000 -9.156129
50.000000 -8.658841
50.020000 -8.344760
50.040000 -8.104448
50.060000 -7.244221
50.080000 -6.837130
50.100000 -6.931176
50.120000 -7.112212
50.140000 -7.014804
50.160000 -6.487984
50.180000 -6.413304
50.200000 -6.319257
50.220000 -5.727069
50.240000 -5.195207
50.260000 -4.901598
50.280000 -4.186698
50.300000 -3.638915
50.320000 -3.372081
50.340000 -3.186732
50.360000 -2.906875
50.380000 -2.575597
50.400000 -2.787216
50.420000 -2.529974
50.440000 -2.246266
50.460000 -2.222908
50.480000 -2.160369
50.500000 -2.152317
50.520000 -1.884685
50.540000 -2.067709
50.560000 -2.152850
50.580000 -1.833643
50.600000 -1.847170
50.620000 -1.848346
50.640000 -1.491204
50.660000 -1.368591
50.680000 -1.265666
50.700000 -1.179448
50.720000 -1.069689
50.740000 -0.877087
50.760000 -1.119681
50.780000 -0.865898
50.800000 -0.599078
50.820000 -0.762595
50.840000 -0.495887
50.860000 -0.335941
50.880000 -0.207502
50.900000 -0.268024
50.920000 -0.337621
50.940000 -0.079301
50.960000 -0.218368
50.980000 -0.298230
51.000000 -0.001792
51.020000 0.086303
51.040000 0.114043
51.060000 0.328897
51.080000 0.488255
51.100000 0.548218
51.120000 0.531694
51.140000 0.732530
51.160000 0.950815
51.180000 0.924334
51.200000 1.280440
51.220000 1.645984
51.240000 1.906530
51.260000 2.125249
51.280000 2.434219
51.300000 2.897296
51.320000 2.957721
51.340000 3.163360
51.360000 3.727150
51.380000 4.040307
51.400000 4.343550
51.420000 4.819721
51.440000 5.354523
51.460000 5.726229
51.480000 5.979689
51.500000 6.317185
51.520000 6.706954
51.540000 6.860809
51.560000 7.095282
51.580000 7.508213
51.600000 7.791515
51.620000 7.930932
51.640000 8.058853
51.660000 8.150351
51.680000 7.923413
51.700000 7.699443
51.720000 7.631358
51.740000 7.476509
51.760000 7.270646
51.780000 7.133875
51.800000 7.298512
51.820000 7.410329
51.840000 7.275533
51.860000 7.355408
51.880000 7.546666
51.900000 7.464634
51.920000 7.224239
51.940000 7.122448
51.960000 7.181976
51.980000 6.990326
52.000000 6.697922
52.020000 6.680208
52.040000 6.631490
52.060000 6.404089
52.080000 6.047270
52.100000 5.811047
52.120000 5.737039
52.140000 5.454899
52.160000 5.264608
52.180000 5.307010
52.200000 5.299154
52.220000 5.369591
52.240000 5.409360
52.260000 5.347900
52.280000 5.354089
52.300000 5.205331
52.320000 5.124910
52.340000 5.093374
52.360000 4.978715
52.380000 4.981880
52.400000 5.106510
52.420000 5.144025
52.440000 4.971489
52.460000 4.935388
52.480000 4.815352
52.500000 4.556527
52.520000 4.269766
52.540000 3.988579
52.560000 3.815609
52.580000 3.686526
52.600000 3.378886
52.620000 3.228588
52.640000 3.209305
52.660000 2.837558
52.680000 2.607567
52.700000 2.284845
52.720000 1.947714
52.740000 1.747676
52.760000 1.357444
52.780000 1.246076
52.800000 1.084799
52.820000 0.849178
52.840000 0.700350
52.860000 0.386367
52.880000 0.139740
52.900000 -0.264132
52.920000 -0.649042
52.940000 -0.951473
52.960000 -1.337644
52.980000 -1.644695
53.000000 -1.863904
53.020000 -2.203934
53.040000 -2.481200
53.060000 -2.853802
53.080000 -3.311082
53.100000 -3.693794
53.120000 -4.292620
53.140000 -4.834634
53.160000 -5.226896
53.180000 -5.823286
53.200000 -6.532430
53.220000 -7.172370
53.240000 -7.390515
53.260000 -7.600593
53.280000 -8.343612
53.300000 -8.832287
53.320000 -9.089529
53.340000 -9.071955
53.360000 -9.085426
53.380000 -9.044606
53.400000 -8.602772
53.420000 -8.231221
53.440000 -7.835079
53.460000 -7.033023
53.480000 -6.710889
53.500000 -6.892905
53.520000 -7.062206
53.540000 -6.966941
53.560000 -6.329802
53.580000 -6.475969
53.600000 -6.347124
53.620000 -5.537057
53.640000 -5.239107
53.660000 -4.702106
53.680000 -4.147867
53.700000 -3.501514
53.720000 -3.197963
53.740000 -3.182881
53.760000 -2.681042
53.780000 -2.476453
53.800000 -2.607987
53.820000 -2.367689
53.840000 -1.995270
53.860000 -2.037700
53.880000 -1.975315
53.900000 -1.967291
53.920000 -1.773022
53.940000 -1.942127
53.960000 -2.223384
53.980000 -1.746010
54.000000 -1.941371
54.020000 -1.915941
54.040000 -1.580616
54.060000 -1.526129
54.080000 -1.354420
54.100000 -1.485379
54.120000 -1.236245
54.140000 -1.149116
54.160000 -1.443103
54.180000 -1.106504
54.200000 -0.903091
54.220000 -0.982574
54.240000 -0.697060
54.260000 -0.514260
54.280000 -0.325396
54.300000 -0.377069
54.320000 -0.452981
54.340000 -0.030779
54.360000 -0.288973
54.380000 -0.236447
54.400000 0.208244
54.420000 0.160759
54.440000 0.508630
54.460000 0.579445
54.480000 0.785617
54.500000 1.050897
54.520000 0.837681
54.540000 1.176563
54.560000 1.355008
54.580000 1.329662
54.600000 1.677505
54.620000 1.991573
54.640000 2.225933
54.660000 2.423283
54.680000 2.637828
54.700000 3.025595
54.720000 3.076652
54.740000 3.215369
54.760000 3.733535
54.780000 3.952548
54.800000 4.311412
54.820000 4.710242
54.840000 5.134306
54.860000 5.641858
54.880000 5.746996
54.900000 6.140588
54.920000 6.510893
54.940000 6.643785
54.960000 6.975231
54.980000 7.292127
55.000000 7.632115
55.020000 7.799413
55.040000 7.838118
55.060000 7.897002
55.080000 7.742195
55.100000 7.503984
55.120000 7.402305
55.140000 7.255032
55.160000 7.108865
55.180000 7.006710
55.200000 7.106764
55.220000 7.271220
55.240000 7.207967
55.260000 7.278152
55.280000 7.414026
55.300000 7.292533
55.320000 7.158759
55.340000 6.983241
55.360000 6.984081
55.380000 6.858485
55.400000 6.584957
55.420000 6.580504
55.440000 6.566038
55.460000 6.313236
55.480000 6.004938
55.500000 5.848688
55.520000 5.768365
55.540000 5.561647
55.560000 5.317064
55.580000 5.390540
55.600000 5.553987
55.620000 5.534116
55.640000 5.498884
55.660000 5.521695
55.680000 5.538639
55.700000 5.382460
55.720000 5.205709
55.740000 5.188345
55.760000 5.122123
55.780000 5.081107
55.800000 5.086583
55.820000 5.095643
55.840000 4.960763
55.860000 4.809260
55.880000 4.708534
55.900000 4.423971
55.920000 4.105269
55.940000 3.865643
55.960000 3.720106
55.980000 3.533259
56.000000 3.317748
56.020000 3.090893
56.040000 3.043534
56.060000 2.800281
56.080000 2.404966
56.100000 2.196036
56.120000 1.896476
56.140000 1.626687
56.160000 1.434309
56.180000 1.181366
56.200000 1.103675
56.220000 0.952845
56.240000 0.690352
56.260000 0.537617
56.280000 0.140846
56.300000 -0.238435
56.320000 -0.508112
56.340000 -0.925048
56.360000 -1.296516
56.380000 -1.611661
56.400000 -1.832509
56.420000 -2.116399
56.440000 -2.601489
56.460000 -2.987534
56.480000 -3.401138
56.500000 -3.861456
56.520000 -4.474664
56.540000 -5.079077
56.560000 -5.415368
56.580000 -5.875995
56.600000 -6.809963
56.620000 -7.341181
56.640000 -7.456428
56.660000 -7.805896
56.680000 -8.390495
56.700000 -9.007329
56.720000 -9.164489
56.740000 -9.069392
56.760000 -9.164111
56.780000 -8.938503
56.800000 -8.493924
56.820000 -8.230240
56.840000 -7.583691
56.860000 -6.828237
56.880000 -6.509493
56.900000 -6.705624
56.920000 -6.980496
56.940000 -6.582324
56.960000 -6.287848
56.980000 -6.451253
57.000000 -6.104347
57.020000 -5.619509
57.040000 -5.178641
57.060000 -4.773215
57.080000 -4.187609
57.100000 -3.486614
57.120000 -3.565747
57.140000 -3.162380
57.160000 -2.776433
57.180000 -2.852262
57.200000 -2.632507
57.220000 -2.546806
57.240000 -2.182537
57.260000 -2.055078
57.280000 -2.182159
57.300000 -1.868133
57.320000 -1.742551
57.340000 -2.054910
57.360000 -1.904304
57.380000 -1.678892
57.400000 -1.850125
57.420000 -1.585363
57.440000 -1.434435
57.460000 -1.189026
57.480000 -1.221472
57.500000 -1.183761
57.520000 -0.883977
57.540000 -1.177109
57.560000 -1.120087
57.580000 -0.992517
57.600000 -0.864106
57.620000 -0.863125
57.640000 -0.854639
57.660000 -0.400006
57.680000 -0.503323
57.700000 -0.640906
57.720000 -0.379169
57.740000 -0.407162
57.760000 -0.490188
57.780000 -0.342592
57.800000 -0.212823
57.820000 0.073504
57.840000 0.164890
57.860000 0.293805
57.880000 0.762049
57.900000 0.611513
57.920000 0.787969
57.940000 1.098690
57.960000 1.116754
57.980000 1.398824
58.000000 1.598820
58.020000 2.105882
58.040000 2.296818
58.060000 2.432483
58.080000 2.932291
58.100000 3.153964
58.120000 3.235604
58.140000 3.473157
58.160000 3.906029
58.180000 4.247725
58.200000 4.485740
58.220000 4.902705
58.240000 5.474336
58.260000 5.727027
58.280000 5.954105
58.300000 6.370873
58.320000 6.586735
58.340000 6.864926
58.360000 7.032154
58.380000 7.407179
58.400000 7.786740
58.420000 7.736412
58.440000 7.871698
58.460000 7.868211
58.480000 7.655402
58.500000 7.464970
58.520000 7.332023
58.540000 7.188026
58.560000 7.000871
58.580000 6.969349
58.600000 7.077623
58.620000 7.191905
58.640000 7.125403
58.660000 7.235315
58.680000 7.348224
58.700000 7.221564
58.720000 6.993631
58.740000 6.926415
58.760000 6.946300
58.780000 6.689940
58.800000 6.550229
58.820000 6.525975
58.840000 6.435443
58.860000 6.208336
58.880000 5.862285
58.900000 5.746715
58.920000 5.631034
58.940000 5.379463
58.960000 5.243771
58.980000 5.344721
59.000000 5.439005
59.020000 5.454997
59.040000 5.508742
59.060000 5.453695
59.080000 5.443333
59.100000 5.303663
59.120000 5.155675
59.140000 5.116200
59.160000 5.009018
59.180000 5.012351
59.200000 5.081878
59.220000 5.033286
59.240000 4.906219
59.260000 4.819146
59.280000 4.648711
59.300000 4.341660
59.320000 4.037016
59.340000 3.756893
59.360000 3.608219
59.380000 3.456591
59.400000 3.175165
59.420000 3.025735
59.440000 2.997014
59.460000 2.672024
59.480000 2.403874
59.500000 2.104272
59.520000 1.827355
59.540000 1.700289
59.560000 1.267109
59.580000 1.172740
59.600000 1.152239
59.620000 0.848408
59.640000 0.735905
59.660000 0.434244
59.680000 0.128579
59.700000 -0.149206
59.720000 -0.674556
59.740000 -1.021546
59.760000 -1.308321
59.780000 -1.718591
59.800000 -2.021330
59.820000 -2.357397
59.840000 -2.636764
59.860000 -3.045606
59.880000 -3.600111
59.900000 -3.973637
59.920000 -4.561821
59.940000 -5.102337
59.960000 -5.457462
59.980000 -6.142255
60.000000 -6.848962
60.020000 -7.318523
60.040000 -7.553108
60.060000 -7.793559
60.080000 -8.515433
60.100000 -8.939119
60.120000 -8.992570
60.140000 -8.983243
60.160000 -8.981157
60.180000 -8.810386
60.200000 -8.352784
60.220000 -7.947597
60.240000 -7.320932
60.260000 -6.589550
60.280000 -6.432012
60.300000 -6.684619
60.320000 -6.823098
60.340000 -6.532738
60.360000 -6.344505
60.380000 -6.391360
60.400000 -6.111629
60.420000 -5.637559
60.440000 -5.237763
60.460000 -4.764267
60.480000 -4.124874
60.500000 -3.712460
60.520000 -3.480313
60.540000 -3.131965
60.560000 -2.963770
60.580000 -2.753342
60.600000 -2.652644
60.620000 -2.431727
60.640000 -2.098446
60.660000 -2.101135
60.680000 -1.979796
60.700000 -1.818589
60.720000 -1.885385
60.740000 -1.988660
60.760000 -1.884209
60.780000 -1.903127
60.800000 -1.852365
60.820000 -1.666485
60.840000 -1.563518
60.860000 -1.346270
60.880000 -1.386865
60.900000 -1.201111
60.920000 -1.185819
60.940000 -1.316078
60.960000 -1.154101
60.980000 -1.118841
61.000000 -0.967044
61.020000 -0.903021
61.040000 -0.658354
61.060000 -0.425100
61.080000 -0.504947
61.100000 -0.325032
61.120000 -0.285417
61.140000 -0.296241
61.160000 -0.237413
61.180000 -0.141252
61.200000 0.081738
61.220000 0.245927
61.240000 0.368863
61.260000 0.762707
61.280000 0.780268
61.300000 0.801609
61.320000 1.145139
61.340000 1.070977
61.360000 1.276253
61.380000 1.496624
61.400000 1.747690
61.420000 2.131914
61.440000 2.249529
61.460000 2.608715
61.480000 2.952806
61.500000 3.032625
61.520000 3.218618
61.540000 3.557023
61.560000 3.883372
61.580000 4.096881
61.600000 4.496985
61.620000 5.014381
61.640000 5.328673
61.660000 5.632266
61.680000 6.045267
61.700000 6.256592
61.720000 6.510305
61.740000 6.748810
61.760000 7.022492
61.780000 7.464648
61.800000 7.540827
61.820000 7.804818
61.840000 7.961180
61.860000 7.745066
61.880000 7.631569
61.900000 7.563176
61.920000 7.385207
61.940000 7.161364
61.960000 7.046102
61.980000 7.107983
62.000000 7.217811
62.020000 7.166517
62.040000 7.223945
62.060000 7.439554
62.080000 7.396214
62.100000 7.166629
62.120000 7.100925
62.140000 7.073856
62.160000 6.860403
62.180000 6.688316
62.200000 6.611969
62.220000 6.537009
62.240000 6.442613
62.260000 6.120493
62.280000 5.949246
62.300000 5.836113
62.320000 5.583618
62.340000 5.457854
62.360000 5.402891
62.380000 5.419849
62.400000 5.495103
62.420000 5.595087
62.440000 5.572388
62.460000 5.489684
62.480000 5.463119
62.500000 5.357814
62.520000 5.188779
62.540000 5.059332
62.560000 5.001442
62.580000 5.047555
62.600000 5.028077
62.620000 4.881027
62.640000 4.838681
62.660000 4.799850
62.680000 4.489185
62.700000 4.192216
62.720000 3.974813
62.740000 3.713259
62.760000 3.538833
62.780000 3.283145
62.800000 3.042861
62.820000 3.064357
62.840000 2.772933
62.860000 2.559451
62.880000 2.409909
62.900000 2.013796
62.920000 1.882823
62.940000 1.699365
62.960000 1.374780
62.980000 1.305072
63.000000 1.157532
63.020000 0.976665
63.040000 0.844151
63.060000 0.425464
63.080000 0.151782
63.100000 -0.115556
63.120000 -0.580510
63.140000 -0.938632
63.160000 -1.360637
63.180000 -1.579384
63.200000 -1.909009
63.220000 -2.397390
63.240000 -2.661970
63.260000 -3.138560
63.280000 -3.577930
63.300000 -4.096671
63.320000 -4.787163
63.340000 -5.162579
63.360000 -5.666952
63.380000 -6.434393
63.400000 -7.175997
63.420000 -7.607791
63.440000 -7.660135
63.460000 -8.189421
63.480000 -8.807361
63.500000 -9.123319
63.520000 -9.165063
63.540000 -9.113433
63.560000 -9.033207
63.580000 -8.773627
63.600000 -8.348583
63.620000 -7.956741
63.640000 -7.282241
63.660000 -6.612880
63.680000 -6.634207
63.700000 -6.856664
63.720000 -6.968649
63.740000 -6.550285
63.760000 -6.441226
63.780000 -6.514632
63.800000 -6.030760
63.820000 -5.608432
63.840000 -5.161809
63.860000 -4.610804
63.880000 -4.002274
63.900000 -3.619548
63.920000 -3.397903
63.940000 -3.102236
63.960000 -2.778884
63.980000 -2.715071
64.000000 -2.596182
64.020000 -2.194580
64.040000 -2.039562
64.060000 -1.934859
64.080000 -1.860375
64.100000 -1.704336
64.120000 -1.755266
64.140000 -1.907665
64.160000 -1.797122
64.180000 -1.718815
64.200000 -1.723730
64.220000 -1.628634
64.240000 -1.290158
64.260000 -1.292763
64.280000 -1.314510
64.300000 -1.089098
64.320000 -1.187653
64.340000 -1.241847
64.360000 -1.243975
64.380000 -1.058416
64.400000 -0.993805
64.420000 -0.976385
64.440000 -0.643959
64.460000 -0.502399
64.480000 -0.524314
64.500000 -0.507384
64.520000 -0.346247
64.540000 -0.377657
64.560000 -0.416866
64.580000 -0.189984
64.600000 0.058156
64.620000 0.155437
64.640000 0.401729
64.660000 0.686767
64.680000 0.729099
64.700000 0.868209
64.720000 0.906900
64.740000 1.119723
64.760000 1.273130
64.780000 1.270063
64.800000 1.852519
64.820000 2.105448
64.840000 2.164402
64.860000 2.664196
64.880000 2.921130
64.900000 3.071442
64.920000 3.247423
64.940000 3.583433
64.960000 3.973007
64.980000 4.225292
65.000000 4.603887
65.020000 5.166738
65.040000 5.558440
65.060000 5.767636
65.080000 6.180162
65.100000 6.467959
65.120000 6.643981
65.140000 6.803928
65.160000 7.161364
65.180000 7.563162
65.200000 7.663776
65.220000 7.877622
65.240000 7.959387
65.260000 7.872692
65.280000 7.665877
65.300000 7.493971
65.320000 7.448853
65.340000 7.165929
65.360000 7.032603
65.380000 7.156686
65.400000 7.245958
65.420000 7.208415
65.440000 7.299535
65.460000 7.450239
65.480000 7.403748
65.500000 7.223734
65.520000 7.037714
65.540000 7.093769
65.560000 6.896154
65.580000 6.576387
65.600000 6.588682
65.620000 6.568825
65.640000 6.367009
65.660000 6.050715
65.680000 5.881078
65.700000 5.775408
65.720000 5.537001
65.740000 5.332104
65.760000 5.285221
65.780000 5.428223
65.800000 5.440392
65.820000 5.498618
65.840000 5.544535
65.860000 5.477221
65.880000 5.407722
65.900000 5.286215
65.920000 5.190544
65.940000 5.022643
65.960000 5.010138
65.980000 4.994175
66.000000 5.056518
66.020000 4.933050
66.040000 4.713169
66.060000 4.799934
66.080000 4.449682
66.100000 4.135026
66.120000 3.901618
66.140000 3.586416
66.160000 3.605881
66.180000 3.366605
66.200000 3.112948
66.220000 3.049233
66.240000 2.927936
66.260000 2.657993
66.280000 2.431460
66.300000 2.074333
66.320000 1.895076
66.340000 1.795652
66.360000 1.502407
66.380000 1.405854
66.400000 1.206768
66.420000 1.112441
66.440000 0.945633
66.460000 0.506082
66.480000 0.239220
66.500000 -0.167844
66.520000 -0.498954
66.540000 -0.944499
66.560000 -1.445301
66.580000 -1.633591
66.600000 -1.961872
66.620000 -2.398931
66.640000 -2.817113
66.660000 -3.278020
66.680000 -3.692212
66.700000 -4.284036
66.720000 -4.976810
66.740000 -5.388901
66.760000 -5.862425
66.780000 -6.706156
66.800000 -7.351081
66.820000 -7.690383
66.840000 -7.941701
66.860000 -8.419594
66.880000 -8.982263
66.900000 -9.231775
66.920000 -9.324660
66.940000 -9.182147
66.960000 -9.115211
66.980000 -8.826910
67.000000 -8.410632
67.020000 -8.050591
67.040000 -7.189510
67.060000 -6.694855
67.080000 -6.714012
67.100000 -6.753249
67.120000 -6.860305
67.140000 -6.536729
67.160000 -6.263482
67.180000 -6.203043
67.200000 -5.843675
67.220000 -5.379491
67.240000 -4.896319
67.260000 -4.277874
67.280000 -3.783219
67.300000 -3.294530
67.320000 -3.036028
67.340000 -2.826173
67.360000 -2.493761
67.380000 -2.423353
67.400000 -2.275785
67.420000 -2.102521
67.440000 -1.905116
67.460000 -1.755364
67.480000 -1.822048
67.500000 -1.770039
67.520000 -1.633395
67.540000 -1.832831
67.560000 -1.813968
67.580000 -1.762632
67.600000 -1.719039
67.620000 -1.544935
67.640000 -1.522376
67.660000 -1.338344
67.680000 -1.279810
67.700000 -1.251621
67.720000 -1.183284
67.740000 -1.315168
67.760000 -1.178621
67.780000 -1.086647
67.800000 -1.070459
67.820000 -0.886371
67.840000 -0.810165
67.860000 -0.651843
67.880000 -0.504359
67.900000 -0.663620
67.920000 -0.528571
67.940000 -0.413814
67.960000 -0.518909
67.980000 -0.263964
68.000000 -0.168489
68.020000 0.051238
68.040000 0.343180
68.060000 0.415564
68.080000 0.628597
68.100000 0.785337
68.120000 0.943953
68.140000 1.144901
68.160000 1.242995
68.180000 1.556166
68.200000 1.953680
68.220000 2.170816
68.240000 2.458823
68.260000 2.808249
68.280000 3.062564
68.300000 3.347813
68.320000 3.515699
68.340000 3.786370
68.360000 4.227140
68.380000 4.526378
68.400000 4.829803
68.420000 5.271819
68.440000 5.721159
68.460000 5.951837
68.480000 6.278283
68.500000 6.573852
68.520000 6.702669
68.540000 7.068353
68.560000 7.386076
68.580000 7.484463
68.600000 7.807843
68.620000 8.079844
68.640000 7.939517
68.660000 7.888054
68.680000 7.724971
68.700000 7.498831
68.720000 7.493523
68.740000 7.148186
68.760000 6.925841
68.780000 7.117491
68.800000 7.132657
68.820000 6.999373
68.840000 7.092061
68.860000 7.117029
68.880000 7.178896
68.900000 7.080732
68.920000 6.719487
68.940000 6.816167
68.960000 6.783819
68.980000 6.458240
69.000000 6.406778
69.020000 6.340080
69.040000 6.272934
69.060000 6.157252
69.080000 5.814590
69.100000 5.659208
69.120000 5.749362
69.140000 5.542126
69.160000 5.429091
69.180000 5.548218
69.200000 5.624074
69.220000 5.751981
69.240000 5.699776
69.260000 5.555626
69.280000 5.524608
69.300000 5.474154
69.320000 5.317386
69.340000 5.057778
69.360000 5.067692
69.380000 5.086583
69.400000 5.042864
69.420000 4.950050
69.440000 4.701028
69.460000 4.701728
69.480000 4.490810
69.500000 4.086602
69.520000 3.858838
69.540000 3.661292
69.560000 3.478562
69.580000 3.319400
69.600000 3.102432
69.620000 2.958841
69.640000 2.890785
69.660000 2.606601
69.680000 2.396550
69.700000 2.168393
69.720000 1.821740
69.740000 1.661149
69.760000 1.516200
69.780000 1.241734
69.800000 1.026503
69.820000 0.920917
69.840000 0.731004
69.860000 0.361105
69.880000 -0.022825
69.900000 -0.350308
69.920000 -0.677329
69.940000 -1.129540
69.960000 -1.608021
69.980000 -1.858541
70.000000 -2.117057
70.020000 -2.665261
70.040000 -2.991861
70.060000 -3.370274
70.080000 -3.890751
70.100000 -4.503413
70.120000 -5.010937
70.140000 -5.443262
70.160000 -6.102583
70.180000 -6.841583
70.200000 -7.506238
70.220000 -7.615241
70.240000 -7.911146
70.260000 -8.562120
70.280000 -8.867310
70.300000 -9.130363
70.320000 -9.168172
70.340000 -9.074251
70.360000 -8.907415
70.380000 -8.684440
70.400000 -8.306923
70.420000 -7.705646
70.440000 -7.089652
70.460000 -6.566038
70.480000 -6.716967
70.500000 -6.872026
70.520000 -6.712444
70.540000 -6.453423
70.560000 -6.309889
70.580000 -6.172460
70.600000 -5.759991
70.620000 -5.232190
70.640000 -4.735196
70.660000 -4.210168
70.680000 -3.590043
70.700000 -3.234988
70.720000 -3.030440
70.740000 -2.742601
70.760000 -2.527412
70.780000 -2.437580
70.800000 -2.327261
70.820000 -2.000577
70.840000 -1.839776
70.860000 -1.809571
70.880000 -1.713872
70.900000 -1.653714
70.920000 -1.690514
70.940000 -1.904276
70.960000 -1.789476
70.980000 -1.750729
71.000000 -1.778848
71.020000 -1.567173
71.040000 -1.425305
71.060000 -1.395603
71.080000 -1.297958
71.100000 -1.280034
71.120000 -1.358551
71.140000 -1.284683
71.160000 -1.374752
71.180000 -1.213756
71.200000 -1.015510
71.220000 -1.052059
71.240000 -0.710335
71.260000 -0.521513
71.280000 -0.598098
71.300000 -0.533472
71.320000 -0.376691
71.340000 -0.407722
71.360000 -0.402443
71.380000 -0.127263
71.400000 0.040722
71.420000 0.248966
71.440000 0.486925
71.460000 0.669935
71.480000 0.825596
71.500000 0.951921
71.520000 1.025691
71.540000 1.191883
71.560000 1.418345
71.580000 1.601761
71.600000 2.007411
71.620000 2.327584
71.640000 2.541023
71.660000 2.903626
71.680000 3.182321
71.700000 3.350151
71.720000 3.546969
71.740000 3.872351
71.760000 4.234562
71.780000 4.527078
71.800000 4.893294
71.820000 5.390932
71.840000 5.756294
71.860000 5.978695
71.880000 6.290564
71.900000 6.504592
71.920000 6.726475
71.940000 6.921374
71.960000 7.169934
71.980000 7.498102
72.000000 7.724537
72.020000 7.773689
72.040000 7.802088
72.060000 7.679012
72.080000 7.520060
72.100000 7.332597
72.120000 7.128582
72.140000 7.054294
72.160000 6.850629
72.180000 6.970736
72.200000 7.110293
72.220000 7.046298
72.240000 7.183755
72.260000 7.235021
72.280000 7.191219
72.300000 7.040094
72.320000 6.884307
72.340000 6.784295
72.360000 6.706828
72.380000 6.498178
72.400000 6.419213
72.420000 6.462834
72.440000 6.270175
72.460000 6.072714
72.480000 5.852693
72.500000 5.786849
72.520000 5.650092
72.540000 5.434762
72.560000 5.524132
72.580000 5.573242
72.600000 5.671601
72.620000 5.698320
72.640000 5.651549
72.660000 5.712085
72.680000 5.502595
72.700000 5.365376
72.720000 5.221519
72.740000 5.107224
72.760000 5.070899
72.780000 5.015866
72.800000 5.006175
72.820000 4.879515
72.840000 4.778411
72.860000 4.579535
72.880000 4.385308
72.900000 4.052896
72.920000 3.735006
72.940000 3.612168
72.960000 3.382289
72.980000 3.167127
73.000000 3.048225
73.020000 2.978012
73.040000 2.774123
73.060000 2.520452
73.080000 2.326169
73.100000 2.026217
73.120000 1.872908
73.140000 1.611185
73.160000 1.377889
73.180000 1.353775
73.200000 1.101981
73.220000 0.895991
73.240000 0.728973
73.260000 0.352661
73.280000 -0.070087
73.300000 -0.401715
73.320000 -0.811089
73.340000 -1.313754
73.360000 -1.623424
73.380000 -1.990565
73.400000 -2.335453
73.420000 -2.685804
73.440000 -3.141445
73.460000 -3.510266
73.480000 -4.042898
73.500000 -4.607626
73.520000 -5.120037
73.540000 -5.554365
73.560000 -6.087109
73.580000 -6.951761
73.600000 -7.469031
73.620000 -7.646636
73.640000 -7.972074
73.660000 -8.502690
73.680000 -9.011362
73.700000 -9.200310
73.720000 -9.132995
73.740000 -9.115869
73.760000 -8.958317
73.780000 -8.558815
73.800000 -8.204110
73.820000 -7.638794
73.840000 -6.864926
73.860000 -6.491204
73.880000 -6.554934
73.900000 -6.800665
73.920000 -6.596454
73.940000 -6.234971
73.960000 -6.230322
73.980000 -6.046093
74.000000 -5.569741
74.020000 -5.050230
74.040000 -4.628519
74.060000 -3.995791
74.080000 -3.409077
74.100000 -3.113704
74.120000 -2.867539
74.140000 -2.568960
74.160000 -2.336140
74.180000 -2.311004
74.200000 -2.160635
74.220000 -1.885133
74.240000 -1.769521
74.260000 -1.837130
74.280000 -1.782965
74.300000 -1.704854
74.320000 -1.920212
74.340000 -2.022072
74.360000 -1.958231
74.380000 -1.936778
74.400000 -1.942547
74.420000 -1.786115
74.440000 -1.597168
74.460000 -1.578403
74.480000 -1.543269
74.500000 -1.471418
74.520000 -1.448046
74.540000 -1.523216
74.560000 -1.385605
74.580000 -1.185539
74.600000 -1.153793
74.620000 -0.947986
74.640000 -0.670621
74.660000 -0.549534
74.680000 -0.545543
74.700000 -0.455880
74.720000 -0.304475
74.740000 -0.320509
74.760000 -0.218256
74.780000 0.010348
74.800000 0.272197
74.820000 0.424106
74.840000 0.639604
74.860000 0.910681
74.880000 0.978247
74.900000 1.082754
74.920000 1.228361
74.940000 1.393405
74.960000 1.531744
74.980000 1.811195
75.000000 2.166321
75.020000 2.430662
75.040000 2.612426
75.060000 2.948689
75.080000 3.211476
75.100000 3.263344
75.120000 3.491627
75.140000 3.857857
75.160000 4.137337
75.180000 4.424504
75.200000 4.810912
75.220000 5.301997
75.240000 5.618375
75.260000 5.844137
75.280000 6.139538
75.300000 6.440204
75.320000 6.671918
75.340000 6.830352
75.360000 7.232487
75.380000 7.588956
75.400000 7.737462
75.420000 7.854502
75.440000 7.853466
75.460000 7.717969
75.480000 7.587122
75.500000 7.369888
75.520000 7.180184
75.540000 7.056394
75.560000 6.937380
75.580000 7.050723
75.600000 7.075901
75.620000 7.040907
75.640000 7.168673
75.660000 7.224575
75.680000 7.087916
75.700000 6.907538
75.720000 6.822006
75.740000 6.800357
75.760000 6.565128
75.780000 6.434225
75.800000 6.415194
75.820000 6.414256
75.840000 6.219623
75.860000 5.921281
75.880000 5.835315
75.900000 5.778643
75.920000 5.575160
75.940000 5.489474
75.960000 5.528823
75.980000 5.672035
76.000000 5.777999
76.020000 5.744405
76.040000 5.756070
76.060000 5.729575
76.080000 5.587105
76.100000 5.456132
76.120000 5.295387
76.140000 5.175126
76.160000 5.179579
76.180000 5.138017
76.200000 5.061027
76.220000 4.906443
76.240000 4.758428
76.260000 4.589813
76.280000 4.230613
76.300000 3.916966
76.320000 3.659388
76.340000 3.459742
76.360000 3.315969
76.380000 3.023803
76.400000 2.939573
76.420000 2.851435
76.440000 2.566089
76.460000 2.321394
76.480000 2.037910
76.500000 1.796170
76.520000 1.585349
76.540000 1.321848
76.560000 1.196028
76.580000 1.122118
76.600000 0.952915
76.620000 0.774904
76.640000 0.559420
76.660000 0.222934
76.680000 -0.114043
76.700000 -0.488171
76.720000 -0.874790
76.740000 -1.267123
76.760000 -1.560647
76.780000 -1.847128
76.800000 -2.201581
76.820000 -2.527916
76.840000 -2.946210
76.860000 -3.377374
76.880000 -3.867282
76.900000 -4.506857
76.920000 -4.982440
76.940000 -5.418365
76.960000 -6.017106
76.980000 -6.842353
77.000000 -7.336700
77.020000 -7.456498
77.040000 -7.848201
77.060000 -8.519200
77.080000 -9.014135
77.100000 -9.110058
77.120000 -9.067194
77.140000 -9.101782
77.160000 -8.890611
77.180000 -8.407915
77.200000 -8.086216
77.220000 -7.452311
77.240000 -6.706030
77.260000 -6.525527
77.280000 -6.690570
77.300000 -6.932520
77.320000 -6.616745
77.340000 -6.320055
77.360000 -6.380914
77.380000 -6.109235
77.400000 -5.598406
77.420000 -5.078321
77.440000 -4.693116
77.460000 -4.009962
77.480000 -3.464811
77.500000 -3.278398
77.520000 -2.996636
77.540000 -2.612202
77.560000 -2.520746
77.580000 -2.445422
77.600000 -2.117939
77.620000 -1.911712
77.640000 -1.815620
77.660000 -1.809277
77.680000 -1.702697
77.700000 -1.646488
77.720000 -1.893759
77.740000 -1.882627
77.760000 -1.746430
77.780000 -1.782615
77.800000 -1.721504
77.820000 -1.523874
77.840000 -1.342685
77.860000 -1.412380
77.880000 -1.322464
77.900000 -1.243261
77.920000 -1.336635
77.940000 -1.363410
77.960000 -1.210059
77.980000 -1.060377
78.000000 -1.054215
78.020000 -0.829265
78.040000 -0.582862
78.060000 -0.583660
78.080000 -0.570063
78.100000 -0.451595
78.120000 -0.409206
78.140000 -0.446777
78.160000 -0.282000
78.180000 -0.059920
78.200000 0.129517
78.220000 0.309012
78.240000 0.532730
78.260000 0.764864
78.280000 0.811313
78.300000 0.927107
78.320000 1.137423
78.340000 1.273438
78.360000 1.444055
78.380000 1.801071
78.400000 2.149657
78.420000 2.371624
78.440000 2.641693
78.460000 3.022473
78.480000 3.228826
78.500000 3.307357
78.520000 3.650930
78.540000 4.033866
78.560000 4.291430
78.580000 4.643166
78.600000 5.124686
78.620000 5.563565
78.640000 5.842765
78.660000 6.115956
78.680000 6.436815
78.700000 6.703551
78.720000 6.859787
78.740000 7.131438
78.760000 7.507275
78.780000 7.750639
78.800000 7.843972
78.820000 7.931647
78.840000 7.881305
78.860000 7.648639
78.880000 7.460475
78.900000 7.287716
78.920000 7.041831
78.940000 6.882094
78.960000 6.847254
78.980000 6.919455
79.000000 6.927661
79.020000 6.947266
79.040000 7.051745
79.060000 7.065833
79.080000 6.923698
79.100000 6.749693
79.120000 6.760321
79.140000 6.669089
79.160000 6.469653
79.180000 6.461223
79.200000 6.472622
79.220000 6.427251
79.240000 6.202707
79.260000 6.003817
79.280000 5.960925
79.300000 5.822166
79.320000 5.629199
79.340000 5.590130
79.360000 5.660497
79.380000 5.785533
79.400000 5.866402
79.420000 5.799536
79.440000 5.793683
79.460000 5.739252
79.480000 5.575300
79.500000 5.408058
79.520000 5.173964
79.540000 5.100684
79.560000 5.107966
79.580000 4.988825
79.600000 4.846705
79.620000 4.718672
79.640000 4.640548
79.660000 4.373419
79.680000 3.975682
79.700000 3.678054
79.720000 3.507045
79.740000 3.312328
79.760000 3.050059
79.780000 2.862358
79.800000 2.831481
79.820000 2.739563
79.840000 2.457227
79.860000 2.183741
79.880000 2.010365
79.900000 1.819695
79.920000 1.609281
79.940000 1.359139
79.960000 1.261423
79.980000 1.262684
80.000000 1.080906
80.020000 0.886385
80.040000 0.634983
80.060000 0.412749
80.080000 0.056364
80.100000 -0.350700
80.120000 -0.774526
80.140000 -1.118589
80.160000 -1.361225
80.180000 -1.758347
80.200000 -2.083855
80.220000 -2.475585
80.240000 -2.905166
80.260000 -3.333795
80.280000 -3.962336
80.300000 -4.546823
80.320000 -5.040064
80.340000 -5.539704
80.360000 -6.146386
80.380000 -7.070342
80.400000 -7.555348
80.420000 -7.683241
80.440000 -8.199209
80.460000 -8.832273
80.480000 -9.318190
80.500000 -9.446489
80.520000 -9.361362
80.540000 -9.400222
80.560000 -9.195983
80.580000 -8.680197
80.600000 -8.321108
80.620000 -7.638654
80.640000 -6.825829
80.660000 -6.599212
80.680000 -6.732874
80.700000 -6.933249
80.720000 -6.592855
80.740000 -6.222732
80.760000 -6.263216
80.780000 -5.917150
80.800000 -5.397850
80.820000 -4.876364
80.840000 -4.368588
80.860000 -3.770672
80.880000 -3.211658
80.900000 -2.996286
80.920000 -2.721876
80.940000 -2.451569
80.960000 -2.330552
80.980000 -2.270380
81.000000 -2.055456
81.020000 -1.835435
81.040000 -1.788230
81.060000 -1.793929
81.080000 -1.716715
81.100000 -1.698188
81.120000 -1.958217
81.140000 -1.962292
81.160000 -1.861439
81.180000 -1.932619
81.200000 -1.867279
81.220000 -1.659427
81.240000 -1.536323
81.260000 -1.523790
81.280000 -1.463170
81.300000 -1.379878
81.320000 -1.378981
81.340000 -1.447500
81.360000 -1.281980
81.380000 -1.087403
81.400000 -1.056596
81.420000 -0.794663
81.440000 -0.567781
81.460000 -0.524524
81.480000 -0.476899
81.500000 -0.385163
81.520000 -0.320663
81.540000 -0.367196
81.560000 -0.187925
81.580000 0.064429
81.600000 0.234430
81.620000 0.403115
81.640000 0.673268
81.660000 0.901831
81.680000 0.894563
81.700000 0.994071
81.720000 1.195019
81.740000 1.345583
81.760000 1.482256
81.780000 1.753572
81.800000 2.104818
81.820000 2.380292
81.840000 2.583551
81.860000 2.819760
81.880000 3.083779
81.900000 3.229512
81.920000 3.465385
81.940000 3.810848
81.960000 4.050628
81.980000 4.556555
82.000000 4.993502
82.020000 5.319781
82.040000 5.674248
82.060000 6.085401
82.080000 6.411273
82.100000 6.584677
82.120000 6.771748
82.140000 7.196596
82.160000 7.631078
82.180000 7.745164
82.200000 7.884889
82.220000 8.095528
82.240000 8.073151
82.260000 7.786726
82.280000 7.512764
82.300000 7.426671
82.320000 7.312124
82.340000 7.047572
82.360000 6.905144
82.380000 7.105364
82.400000 7.206398
82.420000 7.127111
82.440000 7.144601
82.460000 7.183573
82.480000 7.135037
82.500000 6.912062
82.520000 6.751583
82.540000 6.647314
82.560000 6.604338
82.580000 6.484777
82.600000 6.302747
82.620000 6.331076
82.640000 6.175961
82.660000 5.912851
82.680000 5.760873
82.700000 5.590578
82.720000 5.538009
82.740000 5.494053
82.760000 5.434146
82.780000 5.617590
82.800000 5.828789
82.820000 5.734084
82.840000 5.646143
82.860000 5.624382
82.880000 5.542392
82.900000 5.368625
82.920000 5.059920
82.940000 5.079721
82.960000 5.147343
82.980000 5.007744
83.000000 4.835754
83.020000 4.765304
83.040000 4.738627
83.060000 4.360060
83.080000 3.926390
83.100000 3.756907
83.120000 3.576600
83.140000 3.286828
83.160000 2.977606
83.180000 2.971486
83.200000 3.049527
83.220000 2.667697
83.240000 2.356304
83.260000 2.380166
83.280000 2.151659
83.300000 1.620848
83.320000 1.441128
83.340000 1.448900
83.360000 1.373996
83.380000 0.982728
83.400000 0.841812
83.420000 1.095875
83.440000 0.601767
83.460000 0.098542
83.480000 -0.005279
83.500000 -0.442366
83.520000 -0.809899
83.540000 -1.250403
83.560000 -1.702753
83.580000 -1.648476
83.600000 -2.129030
83.620000 -2.854278
83.640000 -2.839126
83.660000 -3.367838
83.680000 -4.294090
83.700000 -4.601912
83.720000 -5.114113
83.740000 -5.806692
83.760000 -6.464192
83.780000 -7.253254
83.800000 -7.589516
83.820000 -7.790983
83.840000 -8.367655
83.860000 -8.964269
83.880000 -9.215475
83.900000 -9.349221
83.920000 -9.467396
83.940000 -9.184052
83.960000 -8.932243
83.980000 -8.717306
84.000000 -7.964078
84.020000 -7.302531
84.040000 -6.784827
84.060000 -6.574160
84.080000 -6.888354
84.100000 -6.822104
84.120000 -6.501035
84.140000 -6.417421
84.160000 -6.159451
84.180000 -5.946585
84.200000 -5.398690
84.220000 -4.708898
84.240000 -4.380477
84.260000 -3.687324
84.280000 -3.193496
84.300000 -3.070406
84.320000 -2.766155
84.340000 -2.525367
84.360000 -2.427358
84.380000 -2.278768
84.400000 -2.033303
84.420000 -1.853612
84.440000 -1.744007
84.460000 -1.672646
84.480000 -1.719095
84.500000 -1.672996
84.520000 -1.763542
84.540000 -1.941511
84.560000 -1.736515
84.580000 -1.717737
84.600000 -1.732623
84.620000 -1.416006
84.640000 -1.392229
84.660000 -1.385801
84.680000 -1.290676
84.700000 -1.345051
84.720000 -1.325727
84.740000 -1.366098
84.760000 -1.256158
84.780000 -1.050939
84.800000 -0.997866
84.820000 -0.833172
84.840000 -0.604623
84.860000 -0.577485
84.880000 -0.621273
84.900000 -0.515800
84.920000 -0.491840
84.940000 -0.503449
84.960000 -0.341696
84.980000 -0.135231
85.000000 0.062063
85.020000 0.297488
85.040000 0.452393
85.060000 0.626399
85.080000 0.817713
85.100000 0.791652
85.120000 1.061847
85.140000 1.317311
85.160000 1.413472
85.180000 1.848934
85.200000 2.221424
85.220000 2.456176
85.240000 2.778422
85.260000 3.065799
85.280000 3.301994
85.300000 3.496907
85.320000 3.750340
85.340000 4.127506
85.360000 4.478150
85.380000 4.843190
85.400000 5.261415
85.420000 5.683798
85.440000 6.027427
85.460000 6.227101
85.480000 6.510963
85.500000 6.780206
85.520000 6.927759
85.540000 7.240973
85.560000 7.562084
85.580000 7.793980
85.600000 7.905432
85.620000 7.903122
85.640000 7.869472
85.660000 7.647476
85.680000 7.375531
85.700000 7.205138
85.720000 7.054784
85.740000 6.861972
85.760000 6.858751
85.780000 6.904346
85.800000 6.953077
85.820000 6.979642
85.840000 6.971058
85.860000 7.049197
85.880000 6.929440
85.900000 6.749959
85.920000 6.726279
85.940000 6.723688
85.960000 6.596272
85.980000 6.500195
86.000000 6.509535
86.020000 6.485785
86.040000 6.290522
86.060000 6.010805
86.080000 5.901047
86.100000 5.828845
86.120000 5.640388
86.140000 5.573368
86.160000 5.642600
86.180000 5.780814
86.200000 5.819239
86.220000 5.706288
86.240000 5.666154
86.260000 5.583310
86.280000 5.369507
86.300000 5.155073
86.320000 4.997031
86.340000 4.921945
86.360000 4.901346
86.380000 4.827030
86.400000 4.726738
86.420000 4.614795
86.440000 4.462901
86.460000 4.219354
86.480000 3.886956
86.500000 3.628566
86.520000 3.433891
86.540000 3.266803
86.560000 3.120076
86.580000 2.966515
86.600000 2.905656
86.620000 2.820320
86.640000 2.573315
86.660000 2.336798
86.680000 2.097074
86.700000 1.928558
86.720000 1.716127
86.740000 1.523146
86.760000 1.418121
86.780000 1.329998
86.800000 1.181408
86.820000 0.927625
86.840000 0.655358
86.860000 0.323338
86.880000 -0.096091
86.900000 -0.505732
86.920000 -0.923452
86.940000 -1.291853
86.960000 -1.596888
86.980000 -1.981224
87.000000 -2.314224
87.020000 -2.748007
87.040000 -3.272685
87.060000 -3.736350
87.080000 -4.376878
87.100000 -5.034196
87.120000 -5.516836
87.140000 -6.063023
87.160000 -6.804852
87.180000 -7.509963
87.200000 -7.823037
87.220000 -8.018131
87.240000 -8.626984
87.260000 -9.230473
87.280000 -9.516226
87.300000 -9.489857
87.320000 -9.417796
87.340000 -9.372901
87.360000 -8.967406
87.380000 -8.450051
87.400000 -7.970884
87.420000 -7.143677
87.440000 -6.641278
87.460000 -6.659035
87.480000 -6.787796
87.500000 -6.756204
87.520000 -6.348594
87.540000 -6.176535
87.560000 -6.072854
87.580000 -5.537253
87.600000 -5.015362
87.620000 -4.549064
87.640000 -3.947465
87.660000 -3.373453
87.680000 -3.020008
87.700000 -2.837166
87.720000 -2.545602
87.740000 -2.310331
87.760000 -2.277395
87.780000 -2.131046
87.800000 -1.882557
87.820000 -1.752325
87.840000 -1.766287
87.860000 -1.752605
87.880000 -1.698356
87.900000 -1.840869
87.920000 -2.004806
87.940000 -1.925477
87.960000 -1.913392
87.980000 -1.902483
88.000000 -1.739792
88.020000 -1.564190
88.040000 -1.515332
88.060000 -1.476487
88.080000 -1.391332
88.100000 -1.419535
88.120000 -1.454880
88.140000 -1.363970
88.160000 -1.207888
88.180000 -1.089882
88.200000 -0.993903
88.220000 -0.728203
88.240000 -0.598644
88.260000 -0.628499
88.280000 -0.565176
88.300000 -0.482472
88.320000 -0.478943
88.340000 -0.419037
88.360000 -0.226925
88.380000 -0.002885
88.400000 0.166402
88.420000 0.383314
88.440000 0.595997
88.460000 0.670145
88.480000 0.771880
88.500000 0.949540
88.520000 1.126333
88.540000 1.298770
88.560000 1.602517
88.580000 1.992371
88.600000 2.269189
88.620000 2.514304
88.640000 2.850525
88.660000 3.125215
88.680000 3.321823
88.700000 3.486502
88.720000 3.883554
88.740000 4.253158
88.760000 4.545185
88.780000 4.998404
88.800000 5.430673
88.820000 5.770409
88.840000 6.105762
88.860000 6.342685
88.880000 6.595487
88.900000 6.866677
88.920000 7.061253
88.940000 7.444638
88.960000 7.726105
88.980000 7.895784
89.000000 8.071806
89.020000 8.038352
89.040000 7.867399
89.060000 7.652630
89.080000 7.441011
89.100000 7.240707
89.120000 6.986265
89.140000 6.901251
89.160000 6.940250
89.180000 6.960443
89.200000 6.911151
89.220000 6.933011
89.240000 7.004624
89.260000 6.927521
89.280000 6.722848
89.300000 6.627821
89.320000 6.639626
89.340000 6.505278
89.360000 6.399692
89.380000 6.360595
89.400000 6.407170
89.420000 6.321610
89.440000 6.084393
89.460000 5.931336
89.480000 5.838017
89.500000 5.760593
89.520000 5.688293
89.540000 5.625376
89.560000 5.733426
89.580000 5.900780
89.600000 5.970041
89.620000 5.860675
89.640000 5.765634
89.660000 5.720081
89.680000 5.561115
89.700000 5.349286
89.720000 5.120751
89.740000 5.122865
89.760000 5.173796
89.780000 4.997661
89.800000 4.816892
89.820000 4.701714
89.840000 4.556653
89.860000 4.271209
89.880000 3.845044
89.900000 3.609242
89.920000 3.477498
89.940000 3.262616
89.960000 3.065561
89.980000 2.956895
90.000000 2.850539
90.020000 2.720112
90.040000 2.516223
90.060000 2.221256
90.080000 1.982064
90.100000 1.805552
90.120000 1.644247
90.140000 1.457750
90.160000 1.292861
90.180000 1.193787
90.200000 1.107876
90.220000 0.849220
90.240000 0.473356
90.260000 0.161109
90.280000 -0.163419
90.300000 -0.552615
90.320000 -1.032398
90.340000 -1.401527
90.360000 -1.651319
90.380000 -2.042517
90.400000 -2.468415
90.420000 -2.913456
90.440000 -3.367992
90.460000 -3.875110
90.480000 -4.544106
90.500000 -5.130651
90.520000 -5.595843
90.540000 -6.145839
90.560000 -6.962922
90.580000 -7.621024
90.600000 -7.841969
90.620000 -8.148125
90.640000 -8.811030
90.660000 -9.305699
90.680000 -9.529081
90.700000 -9.498329
90.720000 -9.371347
90.740000 -9.287747
90.760000 -8.847565
90.780000 -8.372543
90.800000 -7.813388
90.820000 -6.932801
90.840000 -6.523160
90.860000 -6.586427
90.880000 -6.669439
90.900000 -6.553183
90.920000 -6.132046
90.940000 -6.007402
90.960000 -5.840104
90.980000 -5.323100
91.000000 -4.854463
91.020000 -4.412265
91.040000 -3.804967
91.060000 -3.278216
91.080000 -3.006873
91.100000 -2.806079
91.120000 -2.530058
91.140000 -2.387308
91.160000 -2.359777
91.180000 -2.240175
91.200000 -2.012984
91.220000 -1.901069
91.240000 -1.950935
91.260000 -1.924553
91.280000 -1.841107
91.300000 -1.987106
91.320000 -2.102970
91.340000 -2.013600
91.360000 -2.006150
91.380000 -1.939998
91.400000 -1.768513
91.420000 -1.621002
91.440000 -1.562061
91.460000 -1.486261
91.480000 -1.410825
91.500000 -1.424997
91.520000 -1.467049
91.540000 -1.344939
91.560000 -1.176115
91.580000 -1.105384
91.600000 -0.995303
91.620000 -0.700994
91.640000 -0.597188
91.660000 -0.632406
91.680000 -0.527017
91.700000 -0.467614
91.720000 -0.428713
91.740000 -0.364788
91.760000 -0.187771
91.780000 0.077649
91.800000 0.266666
91.820000 0.490286
91.840000 0.719213
91.860000 0.833718
91.880000 0.970951
91.900000 1.135505
91.920000 1.308811
91.940000 1.451673
91.960000 1.745674
91.980000 2.133455
92.000000 2.370406
92.020000 2.613784
92.040000 2.946168
92.060000 3.215089
92.080000 3.342618
92.100000 3.537124
92.120000 3.902178
92.140000 4.250526
92.160000 4.530187
92.180000 4.979219
92.200000 5.410481
92.220000 5.769051
92.240000 6.097682
92.260000 6.330376
92.280000 6.628101
92.300000 6.891519
92.320000 7.073030
92.340000 7.435241
92.360000 7.674615
92.380000 7.853452
92.400000 8.019350
92.420000 7.910011
92.440000 7.759041
92.460000 7.564576
92.480000 7.368039
92.500000 7.187690
92.520000 6.913434
92.540000 6.847828
92.560000 6.926597
92.580000 6.907665
92.600000 6.925771
92.620000 6.926471
92.640000 7.021792
92.660000 7.031034
92.680000 6.761693
92.700000 6.688400
92.720000 6.707304
92.740000 6.578963
92.760000 6.512069
92.780000 6.400617
92.800000 6.432768
92.820000 6.415908
92.840000 6.105328
92.860000 5.963249
92.880000 5.884775
92.900000 5.785113
92.920000 5.695379
92.940000 5.627141
92.960000 5.731186
92.980000 5.873600
93.000000 5.893485
93.020000 5.803723
93.040000 5.721761
93.060000 5.619957
93.080000 5.475092
93.100000 5.292166
93.120000 5.106944
93.140000 5.062735
93.160000 5.079945
93.180000 4.980829
93.200000 4.827254
93.220000 4.686170
93.240000 4.483444
93.260000 4.238679
93.280000 3.896535
93.300000 3.575914
93.320000 3.431567
93.340000 3.242746
93.360000 3.053224
93.380000 2.893684
93.400000 2.775299
93.420000 2.675175
93.440000 2.427077
93.460000 2.149307
93.480000 1.899123
93.500000 1.716547
93.520000 1.542471
93.540000 1.333905
93.560000 1.230322
93.580000 1.165976
93.600000 0.979564
93.620000 0.776571
93.640000 0.450012
93.660000 0.115486
93.680000 -0.226042
93.700000 -0.668871
93.720000 -1.085905
93.740000 -1.406022
93.760000 -1.764116
93.780000 -2.125767
93.800000 -2.499727
93.820000 -2.976205
93.840000 -3.418334
93.860000 -3.974169
93.880000 -4.595975
93.900000 -5.161221
93.920000 -5.691822
93.940000 -6.273298
93.960000 -7.100057
93.980000 -7.776909
94.000000 -7.889847
94.020000 -8.206141
94.040000 -8.916027
94.060000 -9.395979
94.080000 -9.535242
94.100000 -9.432541
94.120000 -9.338033
94.140000 -9.209594
94.160000 -8.684636
94.180000 -8.193258
94.200000 -7.548473
94.220000 -6.686005
94.240000 -6.407086
94.260000 -6.562930
94.280000 -6.688638
94.300000 -6.391921
94.320000 -6.015636
94.340000 -6.079323
94.360000 -5.808722
94.380000 -5.186413
94.400000 -4.801166
94.420000 -4.344656
94.440000 -3.742246
94.460000 -3.222553
94.480000 -3.016689
94.500000 -2.915417
94.520000 -2.550083
94.540000 -2.436838
94.560000 -2.503144
94.580000 -2.205698
94.600000 -1.996586
94.620000 -1.948778
94.640000 -1.949619
94.660000 -1.890987
94.680000 -1.858275
94.700000 -2.101219
94.720000 -2.115587
94.740000 -2.023879
94.760000 -2.016485
94.780000 -1.974839
94.800000 -1.721826
94.820000 -1.548660
94.840000 -1.600529
94.860000 -1.483461
94.880000 -1.343455
94.900000 -1.434673
94.920000 -1.457218
94.940000 -1.244171
94.960000 -1.079590
94.980000 -1.011869
95.000000 -0.817166
95.020000 -0.553847
95.040000 -0.463301
95.060000 -0.547644
95.080000 -0.396771
95.100000 -0.304251
95.120000 -0.380177
95.140000 -0.206130
95.160000 0.026116
95.180000 0.216464
95.200000 0.405874
95.220000 0.649280
95.240000 0.831996
95.260000 0.910821
95.280000 0.993889
95.300000 1.178467
95.320000 1.350611
95.340000 1.470760
95.360000 1.810215
95.380000 2.196134
95.400000 2.381090
95.420000 2.614793
95.440000 2.974847
95.460000 3.128492
95.480000 3.231403
95.500000 3.473157
95.520000 3.842188
95.540000 4.138821
95.560000 4.433158
95.580000 4.903195
95.600000 5.358290
95.620000 5.632938
95.640000 5.904757
95.660000 6.229972
95.680000 6.506384
95.700000 6.671120
95.720000 6.961549
95.740000 7.385151
95.760000 7.614232
95.780000 7.792789
95.800000 7.918750
95.820000 7.855762
95.840000 7.711752
95.860000 7.442173
95.880000 7.311228
95.900000 7.173196
95.920000 6.900425
95.940000 6.932240
95.960000 7.022954
95.980000 7.004246
96.000000 7.072638
96.020000 7.082903
96.040000 7.144209
96.060000 7.029592
96.080000 6.758641
96.100000 6.779562
96.120000 6.708439
96.140000 6.448494
96.160000 6.388686
96.180000 6.364558
96.200000 6.358354
96.220000 6.119415
96.240000 5.824504
96.260000 5.799718
96.280000 5.706498
96.300000 5.515646
96.320000 5.456244
96.340000 5.576743
96.360000 5.817068
96.380000 5.859148
96.400000 5.848254
96.420000 5.906886
96.440000 5.841210
96.460000 5.693139
96.480000 5.489978
96.500000 5.315398
96.520000 5.267408
96.540000 5.219195
96.560000 5.156109
96.580000 5.062469
96.600000 4.905869
96.620000 4.757546
96.640000 4.519110
96.660000 4.144912
96.680000 3.783710
96.700000 3.533946
96.720000 3.367516
96.740000 3.141305
96.760000 2.922138
96.780000 2.823485
96.800000 2.729872
96.820000 2.515649
96.840000 2.165453
96.860000 1.969924
96.880000 1.778259
96.900000 1.560017
96.920000 1.375677
96.940000 1.246272
96.960000 1.218685
96.980000 1.153177
97.000000 0.934403
97.020000 0.758772
97.040000 0.466872
97.060000 0.099774
97.080000 -0.255001
97.100000 -0.670243
97.120000 -1.075515
97.140000 -1.410335
97.160000 -1.715188
97.180000 -2.086053
97.200000 -2.477798
97.220000 -2.958967
97.240000 -3.384208
97.260000 -3.923449
97.280000 -4.582826
97.300000 -5.146433
97.320000 -5.579571
97.340000 -6.144355
97.360000 -7.054434
97.380000 -7.683549
97.400000 -7.749799
97.420000 -8.118676
97.440000 -8.878260
97.460000 -9.336730
97.480000 -9.407265
97.500000 -9.263045
97.520000 -9.286024
97.540000 -9.100774
97.560000 -8.485774
97.580000 -8.016633
97.600000 -7.373122
97.620000 -6.481122
97.640000 -6.247462
97.660000 -6.416244
97.680000 -6.551853
97.700000 -6.199584
97.720000 -5.897084
97.740000 -6.003635
97.760000 -5.677189
97.780000 -5.130749
97.800000 -4.760066
97.820000 -4.371123
97.840000 -3.723117
97.860000 -3.227818
97.880000 -3.133771
97.900000 -2.915543
97.920000 -2.534203
97.940000 -2.509669
97.960000 -2.490947
97.980000 -2.212084
98.000000 -2.001207
98.020000 -1.969237
98.040000 -2.015547
98.060000 -1.891463
98.080000 -1.885819
98.100000 -2.176781
98.120000 -2.126117
98.140000 -2.043973
98.160000 -2.096038
98.180000 -2.016177
98.200000 -1.748054
98.220000 -1.610639
98.240000 -1.672282
98.260000 -1.497590
98.280000 -1.392509
98.300000 -1.510081
98.320000 -1.467189
98.340000 -1.271786
98.360000 -1.115816
98.380000 -1.061875
98.400000 -0.839992
98.420000 -0.528991
98.440000 -0.505171
98.460000 -0.563173
98.480000 -0.353277
98.500000 -0.333700
98.520000 -0.380835
98.540000 -0.185111
98.560000 0.046981
98.580000 0.256962
98.600000 0.436205
98.620000 0.721622
98.640000 0.942455
98.660000 0.963572
98.680000 1.130604
98.700000 1.345737
98.720000 1.474694
98.740000 1.613832
98.760000 2.003196
98.780000 2.373977
98.800000 2.520326
98.820000 2.756633
98.840000 3.148615
98.860000 3.267559
98.880000 3.344340
98.900000 3.622251
98.920000 3.956651
98.940000 4.227406
98.960000 4.490459
98.980000 4.953327
99.000000 5.365264
99.020000 5.581182
99.040000 5.899660
99.060000 6.182850
99.080000 6.415334
99.100000 6.600165
99.120000 6.907132
99.140000 7.327023
99.160000 7.501869
99.180000 7.695270
99.200000 7.873589
99.220000 7.754672
99.240000 7.578090
99.260000 7.392699
99.280000 7.275813
99.300000 7.103880
99.320000 6.842255
99.340000 6.915310
99.360000 7.041957
99.380000 6.982905
99.400000 7.030558
99.420000 7.105322
99.440000 7.186584
99.460000 7.061463
99.480000 6.791661
99.500000 6.867139
99.520000 6.820620
99.540000 6.541603
99.560000 6.519337
99.580000 6.460635
99.600000 6.432208
99.620000 6.216472
99.640000 5.884271
99.660000 5.854947
99.680000 5.723358
99.700000 5.566884
99.720000 5.570245
99.740000 5.578311
99.760000 5.759430
99.780000 5.853715
99.800000 5.817937
99.820000 5.828789
99.840000 5.682902
99.860000 5.546411
99.880000 5.450824
99.900000 5.217920
99.920000 5.116438
99.940000 5.153841
99.960000 5.106426
99.980000 5.013639
100.000000 4.812831
100.020000 4.639203
100.040000 4.465547
100.060000 4.099583
100.080000 3.735902
100.100000 3.500071
100.120000 3.356565
100.140000 3.174129
100.160000 2.943452
100.180000 2.846352
100.200000 2.743890
100.220000 2.521572
100.240000 2.236450
100.260000 1.987680
100.280000 1.810551
100.300000 1.602923
100.320000 1.446716
100.340000 1.323584
100.360000 1.260079
100.380000 1.131122
100.400000 0.931616
100.420000 0.720641
100.440000 0.370501
100.460000 0.010236
100.480000 -0.335675
100.500000 -0.709803
100.520000 -1.099376
100.540000 -1.404412
100.560000 -1.732889
100.580000 -2.103012
100.600000 -2.534301
100.620000 -3.040705
100.640000 -3.522897
100.660000 -4.114245
100.680000 -4.777809
100.700000 -5.267184
100.720000 -5.781486
100.740000 -6.482032
100.760000 -7.345452
100.780000 -7.736510
100.800000 -7.910712
100.820000 -8.494610
100.840000 -9.180341
100.860000 -9.509126
100.880000 -9.582181
100.900000 -9.491958
100.920000 -9.402364
100.940000 -9.119860
100.960000 -8.522827
100.980000 -8.036518
101.000000 -7.255956
101.020000 -6.503009
101.040000 -6.535847
101.060000 -6.691299
101.080000 -6.592155
101.100000 -6.280258
101.120000 -6.076131
101.140000 -6.048278
101.160000 -5.612717
101.180000 -5.067650
101.200000 -4.690764
101.220000 -4.156059
101.240000 -3.496823
101.260000 -3.167757
101.280000 -3.008315
101.300000 -2.689907
101.320000 -2.408901
101.340000 -2.398217
101.360000 -2.274861
101.380000 -1.962838
101.400000 -1.859563
101.420000 -1.841093
101.440000 -1.848430
101.460000 -1.796226
101.480000 -1.903562
101.500000 -2.133245
101.520000 -2.045752
101.540000 -2.024761
101.560000 -2.070706
101.580000 -1.907511
101.600000 -1.680782
101.620000 -1.665014
101.640000 -1.626757
101.660000 -1.498360
101.680000 -1.476935
101.700000 -1.536883
101.720000 -1.420936
101.740000 -1.221094
101.760000 -1.099796
101.780000 -0.955436
101.800000 -0.701359
101.820000 -0.499528
101.840000 -0.501139
101.860000 -0.455404
101.880000 -0.289295
101.900000 -0.310805
101.920000 -0.257662
101.940000 -0.030485
101.960000 0.169791
101.980000 0.343671
102.000000 0.566198
102.020000 0.769541
102.040000 0.886749
102.060000 0.925539
102.080000 1.050883
102.100000 1.230714
102.120000 1.314384
102.140000 1.531450
102.160000 1.912118
102.180000 2.168533
102.200000 2.348883
102.220000 2.638290
102.240000 2.924715
102.260000 3.031785
102.280000 3.196955
102.300000 3.527532
102.320000 3.847481
102.340000 4.170511
102.360000 4.571693
102.380000 5.042906
102.400000 5.439636
102.420000 5.724702
102.440000 6.059033
102.460000 6.361099
102.480000 6.579664
102.500000 6.855838
102.520000 7.211916
102.540000 7.564702
102.560000 7.770216
102.580000 7.986596
102.600000 8.064833
102.620000 7.900223
102.640000 7.718697
102.660000 7.531683
102.680000 7.339598
102.700000 7.120348
102.720000 6.951201
102.740000 6.989948
102.760000 7.061870
102.780000 6.995186
102.800000 7.052949
102.820000 7.128035
102.840000 7.098754
102.860000 6.909205
102.880000 6.778764
102.900000 6.781620
102.920000 6.644513
102.940000 6.482116
102.960000 6.460075
102.980000 6.457736
103.000000 6.359783
103.020000 6.126977
103.040000 5.926659
103.060000 5.875238
103.080000 5.725332
103.100000 5.604343
103.120000 5.629605
103.140000 5.712841
103.160000 5.854233
103.180000 5.871317
103.200000 5.869889
103.220000 5.816522
103.240000 5.657780
103.260000 5.500438
103.280000 5.315118
103.300000 5.128341
103.320000 5.058982
103.340000 5.062679
103.360000 5.010376
103.380000 4.873508
103.400000 4.725828
103.420000 4.554511
103.440000 4.312631
103.460000 3.958892
103.480000 3.622069
103.500000 3.439577
103.520000 3.338318
103.540000 3.105569
103.560000 2.957931
103.580000 2.931759
103.600000 2.784065
103.620000 2.563876
103.640000 2.301733
103.660000 2.063942
103.680000 1.908141
103.700000 1.698832
103.720000 1.520261
103.740000 1.469961
103.760000 1.392789
103.780000 1.256774
103.800000 1.034821
103.820000 0.779413
103.840000 0.431696
103.860000 0.014886
103.880000 -0.345015
103.900000 -0.753073
103.920000 -1.189222
103.940000 -1.470914
103.960000 -1.825213
103.980000 -2.233607
104.000000 -2.678256
104.020000 -3.197697
104.040000 -3.668168
104.060000 -4.315809
104.080000 -4.976488
104.100000 -5.470611
104.120000 -5.991312
104.140000 -6.759691
104.160000 -7.552323
104.180000 -7.892199
104.200000 -8.094352
104.220000 -8.694088
104.240000 -9.367790
104.260000 -9.624080
104.280000 -9.660922
104.300000 -9.546753
104.320000 -9.419294
104.340000 -9.043416
104.360000 -8.481041
104.380000 -7.950915
104.400000 -7.092649
104.420000 -6.511145
104.440000 -6.569777
104.460000 -6.681692
104.480000 -6.557286
104.500000 -6.146806
104.520000 -6.011911
104.540000 -5.921337
104.560000 -5.396673
104.580000 -4.858496
104.600000 -4.479453
104.620000 -3.915677
104.640000 -3.319176
104.660000 -3.028130
104.680000 -2.865985
104.700000 -2.546344
104.720000 -2.300655
104.740000 -2.305178
104.760000 -2.119129
104.780000 -1.838418
104.800000 -1.746878
104.820000 -1.752115
104.840000 -1.741403
104.860000 -1.677687
104.880000 -1.819205
104.900000 -2.016611
104.920000 -1.916795
104.940000 -1.880190
104.960000 -1.973396
104.980000 -1.798774
105.000000 -1.621366
105.020000 -1.653812
105.040000 -1.634501
105.060000 -1.553659
105.080000 -1.548226
105.100000 -1.640368
105.120000 -1.512742
105.140000 -1.302607
105.160000 -1.235853
105.180000 -1.086773
105.200000 -0.818315
105.220000 -0.646941
105.240000 -0.651745
105.260000 -0.595647
105.280000 -0.410915
105.300000 -0.405327
105.320000 -0.351345
105.340000 -0.084174
105.360000 0.145481
105.380000 0.308242
105.400000 0.560975
105.420000 0.774988
105.440000 0.886875
105.460000 0.975853
105.480000 1.099642
105.500000 1.336495
105.520000 1.428791
105.540000 1.677197
105.560000 2.061982
105.580000 2.285433
105.600000 2.457073
105.620000 2.739563
105.640000 3.003428
105.660000 3.090515
105.680000 3.262504
105.700000 3.635680
105.720000 3.980863
105.740000 4.256841
105.760000 4.706965
105.780000 5.176862
105.800000 5.517718
105.820000 5.831828
105.840000 6.129679
105.860000 6.474512
105.880000 6.716351
105.900000 6.950053
105.920000 7.345396
105.940000 7.738400
105.960000 7.939685
105.980000 8.113928
106.000000 8.186284
106.020000 8.037694
106.040000 7.823947
106.060000 7.630518
106.080000 7.423885
106.100000 7.208625
106.120000 7.044884
106.140000 7.090002
106.160000 7.078127
106.180000 7.029606
106.200000 7.026147
106.220000 7.067009
106.240000 7.029802
106.260000 6.804964
106.280000 6.677687
106.300000 6.733995
106.320000 6.629012
106.340000 6.442389
106.360000 6.438146
106.380000 6.439280
106.400000 6.366112
106.420000 6.128853
106.440000 5.917837
106.460000 5.874104
106.480000 5.805432
106.500000 5.687285
106.520000 5.698810
106.540000 5.777887
106.560000 5.933142
106.580000 5.994197
106.600000 5.904533
106.620000 5.793263
106.640000 5.705994
106.660000 5.532240
106.680000 5.332706
106.700000 5.089117
106.720000 5.017658
106.740000 5.081780
106.760000 4.962443
106.780000 4.775708
106.800000 4.622315
106.820000 4.476260
106.840000 4.206653
106.860000 3.834122
106.880000 3.511246
106.900000 3.357643
106.920000 3.232691
106.940000 3.035132
106.960000 2.901371
106.980000 2.847220
107.000000 2.731959
107.020000 2.523589
107.040000 2.285167
107.060000 2.050583
107.080000 1.888900
107.100000 1.716603
107.120000 1.571388
107.140000 1.452401
107.160000 1.357514
107.180000 1.219497
107.200000 0.995597
107.220000 0.666056
107.240000 0.295121
107.260000 -0.073700
107.280000 -0.428643
107.300000 -0.887883
107.320000 -1.265190
107.340000 -1.555438
107.360000 -1.938178
107.380000 -2.347342
107.400000 -2.849223
107.420000 -3.354436
107.440000 -3.882405
107.460000 -4.557227
107.480000 -5.218859
107.500000 -5.717028
107.520000 -6.291348
107.540000 -7.088140
107.560000 -7.832825
107.580000 -8.058069
107.600000 -8.286072
107.620000 -8.998073
107.640000 -9.581859
107.660000 -9.749718
107.680000 -9.647269
107.700000 -9.547117
107.720000 -9.429713
107.740000 -8.907387
107.760000 -8.360220
107.780000 -7.798881
107.800000 -6.933739
107.820000 -6.437572
107.840000 -6.553463
107.860000 -6.670111
107.880000 -6.420361
107.900000 -6.028995
107.920000 -6.001507
107.940000 -5.816928
107.960000 -5.221855
107.980000 -4.763903
108.000000 -4.379021
108.020000 -3.796481
108.040000 -3.203928
108.060000 -3.027864
108.080000 -2.899621
108.100000 -2.505174
108.120000 -2.370574
108.140000 -2.386384
108.160000 -2.163870
108.180000 -1.891519
108.200000 -1.814780
108.220000 -1.846778
108.240000 -1.779002
108.260000 -1.712822
108.280000 -1.926793
108.300000 -2.009777
108.320000 -1.908421
108.340000 -1.938514
108.360000 -1.936217
108.380000 -1.738266
108.400000 -1.582913
108.420000 -1.657214
108.440000 -1.593093
108.460000 -1.466152
108.480000 -1.600571
108.500000 -1.625077
108.520000 -1.502071
108.540000 -1.321078
108.560000 -1.283254
108.580000 -1.145055
108.600000 -0.828523
108.620000 -0.718737
108.640000 -0.768169
108.660000 -0.623220
108.680000 -0.465766
108.700000 -0.497007
108.720000 -0.339344
108.740000 -0.059178
108.760000 0.166766
108.780000 0.373708
108.800000 0.649070
108.820000 0.855844
108.840000 0.957424
108.860000 1.055840
108.880000 1.239606
108.900000 1.440344
108.920000 1.526353
108.940000 1.838376
108.960000 2.271220
108.980000 2.424249
109.000000 2.647448
109.020000 2.999717
109.040000 3.200343
109.060000 3.304598
109.080000 3.479907
109.100000 3.861932
109.120000 4.153805
109.140000 4.421549
109.160000 4.854365
109.180000 5.299336
109.200000 5.595171
109.220000 5.862159
109.240000 6.174126
109.260000 6.432964
109.280000 6.624292
109.300000 6.891183
109.320000 7.294634
109.340000 7.587402
109.360000 7.796906
109.380000 8.044094
109.400000 8.058237
109.420000 7.879722
109.440000 7.667739
109.460000 7.557855
109.480000 7.367549
109.500000 7.055190
109.520000 6.984487
109.540000 7.064824
109.560000 7.091501
109.580000 6.968005
109.600000 7.017661
109.620000 7.125179
109.640000 7.012830
109.660000 6.758543
109.680000 6.663320
109.700000 6.707963
109.720000 6.530218
109.740000 6.352081
109.760000 6.353005
109.780000 6.379640
109.800000 6.243107
109.820000 6.001857
109.840000 5.861375
109.860000 5.832094
109.880000 5.707996
109.900000 5.610141
109.920000 5.695757
109.940000 5.821381
109.960000 5.941166
109.980000 6.011001
110.000000 5.978891
110.020000 5.899254
110.040000 5.756812
110.060000 5.594303
110.080000 5.424400
110.100000 5.215218
110.120000 5.127389
110.140000 5.150984
110.160000 5.059528
110.180000 4.886643
110.200000 4.710480
110.220000 4.525090
110.240000 4.245247
110.260000 3.842440
110.280000 3.542628
110.300000 3.377976
110.320000 3.206351
110.340000 2.986134
110.360000 2.877944
110.380000 2.829744
110.400000 2.686336
110.420000 2.457185
110.440000 2.215122
110.460000 2.044786
110.480000 1.868385
110.500000 1.649330
110.520000 1.535357
110.540000 1.446772
110.560000 1.334983
110.580000 1.179728
110.600000 0.924516
110.620000 0.594695
110.640000 0.196397
110.660000 -0.245157
110.680000 -0.651409
110.700000 -1.115508
110.720000 -1.547078
110.740000 -1.836527
110.760000 -2.220444
110.780000 -2.661998
110.800000 -3.144008
110.820000 -3.627502
110.840000 -4.122591
110.860000 -4.808056
110.880000 -5.405257
110.900000 -5.830161
110.920000 -6.408136
110.940000 -7.292071
110.960000 -7.924589
110.980000 -7.964176
111.000000 -8.302260
111.020000 -9.022565
111.040000 -9.500262
111.060000 -9.536180
111.080000 -9.424784
111.100000 -9.394172
111.120000 -9.190983
111.140000 -8.602198
111.160000 -8.112542
111.180000 -7.531921
111.200000 -6.584985
111.220000 -6.237519
111.240000 -6.356590
111.260000 -6.524168
111.280000 -6.260751
111.300000 -5.886063
111.320000 -5.935705
111.340000 -5.655484
111.360000 -5.119799
111.380000 -4.689545
111.400000 -4.272861
111.420000 -3.653254
111.440000 -3.097699
111.460000 -2.978670
111.480000 -2.804580
111.500000 -2.432609
111.520000 -2.368515
111.540000 -2.384353
111.560000 -2.173546
111.580000 -1.948204
111.600000 -1.873006
111.620000 -1.936063
111.640000 -1.907861
111.660000 -1.825871
111.680000 -2.097452
111.700000 -2.148214
111.720000 -2.082763
111.740000 -2.109789
111.760000 -2.063592
111.780000 -1.883621
111.800000 -1.703622
111.820000 -1.748376
111.840000 -1.612824
111.860000 -1.518231
111.880000 -1.605920
111.900000 -1.602139
111.920000 -1.432418
111.940000 -1.249814
111.960000 -1.202553
111.980000 -1.017877
112.000000 -0.687495
112.020000 -0.609735
112.040000 -0.663283
112.060000 -0.492932
112.080000 -0.407596
112.100000 -0.439748
112.120000 -0.299434
112.140000 -0.079175
112.160000 0.161571
112.180000 0.356974
112.200000 0.608082
112.220000 0.841672
112.240000 0.923620
112.260000 1.080318
112.280000 1.263314
112.300000 1.440358
112.320000 1.542331
112.340000 1.893185
112.360000 2.293751
112.380000 2.446668
112.400000 2.720700
112.420000 3.066975
112.440000 3.269954
112.460000 3.374517
112.480000 3.581767
112.500000 3.947815
112.520000 4.246199
112.540000 4.520077
112.560000 4.951212
112.580000 5.383076
112.600000 5.683448
112.620000 5.975600
112.640000 6.235153
112.660000 6.476781
112.680000 6.697964
112.700000 6.962096
112.720000 7.327794
112.740000 7.564632
112.760000 7.806527
112.780000 7.991973
112.800000 7.950089
112.820000 7.778170
112.840000 7.558989
112.860000 7.455252
112.880000 7.207533
112.900000 6.938556
112.920000 6.918391
112.940000 6.968817
112.960000 6.956634
112.980000 6.923936
113.000000 6.962054
113.020000 7.062808
113.040000 6.936049
113.060000 6.691999
113.080000 6.638772
113.100000 6.608889
113.120000 6.428007
113.140000 6.269699
113.160000 6.250304
113.180000 6.270693
113.200000 6.151931
113.220000 5.941642
113.240000 5.798794
113.260000 5.769093
113.280000 5.734743
113.300000 5.640780
113.320000 5.679359
113.340000 5.875420
113.360000 6.026097
113.380000 6.103297
113.400000 5.997012
113.420000 5.921547
113.440000 5.893877
113.460000 5.651535
113.480000 5.405789
113.500000 5.226070
113.520000 5.217164
113.540000 5.199100
113.560000 5.021509
113.580000 4.830699
113.600000 4.713449
113.620000 4.507600
113.640000 4.149505
113.660000 3.768250
113.680000 3.497789
113.700000 3.321136
113.720000 3.142299
113.740000 2.927796
113.760000 2.817337
113.780000 2.744828
113.800000 2.606643
113.820000 2.365813
113.840000 2.098012
113.860000 1.874855
113.880000 1.710525
113.900000 1.553379
113.920000 1.379038
113.940000 1.271632
113.960000 1.208477
113.980000 1.056120
114.000000 0.808260
114.020000 0.479951
114.040000 0.123454
114.060000 -0.259819
114.080000 -0.666280
114.100000 -1.154886
114.120000 -1.484735
114.140000 -1.805244
114.160000 -2.211174
114.180000 -2.582641
114.200000 -3.080909
114.220000 -3.585884
114.240000 -4.111850
114.260000 -4.805003
114.280000 -5.378441
114.300000 -5.858280
114.320000 -6.505726
114.340000 -7.364160
114.360000 -7.894678
114.380000 -8.029768
114.400000 -8.419272
114.420000 -9.148973
114.440000 -9.578807
114.460000 -9.604181
114.480000 -9.496327
114.500000 -9.431323
114.520000 -9.195815
114.540000 -8.560972
114.560000 -8.076343
114.580000 -7.346712
114.600000 -6.461965
114.620000 -6.237197
114.640000 -6.427251
114.660000 -6.494523
114.680000 -6.153513
114.700000 -5.887743
114.720000 -5.914462
114.740000 -5.554869
114.760000 -4.983672
114.780000 -4.603215
114.800000 -4.180957
114.820000 -3.524045
114.840000 -3.084844
114.860000 -2.985574
114.880000 -2.754868
114.900000 -2.448447
114.920000 -2.427806
114.940000 -2.403874
114.960000 -2.139728
114.980000 -1.976883
115.000000 -1.953806
115.020000 -1.992007
115.040000 -1.909919
115.060000 -1.939620
115.080000 -2.224435
115.100000 -2.184343
115.120000 -2.126677
115.140000 -2.191233
115.160000 -2.083883
115.180000 -1.819933
115.200000 -1.732118
115.220000 -1.749875
115.240000 -1.581680
115.260000 -1.537360
115.280000 -1.625469
115.300000 -1.574553
115.320000 -1.371756
115.340000 -1.203617
115.360000 -1.146498
115.380000 -0.867929
115.400000 -0.582540
115.420000 -0.533948
115.440000 -0.530462
115.460000 -0.330101
115.480000 -0.311211
115.500000 -0.292390
115.520000 -0.084482
115.540000 0.146069
115.560000 0.399656
115.580000 0.562165
115.600000 0.839138
115.620000 1.022162
115.640000 1.048138
115.660000 1.199696
115.680000 1.366280
115.700000 1.497240
115.720000 1.645970
115.740000 2.018053
115.760000 2.349541
115.780000 2.486634
115.800000 2.773829
115.820000 3.066289
115.840000 3.206183
115.860000 3.274281
115.880000 3.513809
115.900000 3.867226
115.920000 4.106515
115.940000 4.408820
115.960000 4.879683
115.980000 5.272239
116.000000 5.554225
116.020000 5.839166
116.040000 6.106784
116.060000 6.396570
116.080000 6.610037
116.100000 6.859731
116.120000 7.312446
116.140000 7.559297
116.160000 7.779976
116.180000 7.958519
116.200000 7.828316
116.220000 7.712578
116.240000 7.542465
116.260000 7.355408
116.280000 7.130402
116.300000 6.941651
116.320000 6.964252
116.340000 7.003251
116.360000 6.991615
116.380000 7.003910
116.400000 7.089274
116.420000 7.117715
116.440000 6.941945
116.460000 6.712668
116.480000 6.686859
116.500000 6.590502
116.520000 6.399944
116.540000 6.318529
116.560000 6.313698
116.580000 6.317591
116.600000 6.137017
116.620000 5.930706
116.640000 5.841014
116.660000 5.741646
116.680000 5.668325
116.700000 5.601991
116.720000 5.696933
116.740000 5.840272
116.760000 5.935271
116.780000 5.954847
116.800000 5.913075
116.820000 5.820625
116.840000 5.650946
116.860000 5.503421
116.880000 5.312597
116.900000 5.155353
116.920000 5.133172
116.940000 5.100852
116.960000 4.957724
116.980000 4.810128
117.000000 4.631053
117.020000 4.396847
117.040000 4.116766
117.060000 3.731701
117.080000 3.500954
117.100000 3.383801
117.120000 3.147747
117.140000 3.000585
117.160000 2.943676
117.180000 2.820250
117.200000 2.657937
117.220000 2.400205
117.240000 2.167035
117.260000 1.993127
117.280000 1.782839
117.300000 1.565422
117.320000 1.471992
117.340000 1.372778
117.360000 1.231442
117.380000 1.039582
117.400000 0.742150
117.420000 0.383748
117.440000 0.002087
117.460000 -0.450250
117.480000 -0.892393
117.500000 -1.332056
117.520000 -1.687742
117.540000 -2.017465
117.560000 -2.428450
117.580000 -2.852794
117.600000 -3.317173
117.620000 -3.804337
117.640000 -4.365241
117.660000 -5.026578
117.680000 -5.515576
117.700000 -5.968109
117.720000 -6.661247
117.740000 -7.461120
117.760000 -7.874639
117.780000 -7.924883
117.800000 -8.435488
117.820000 -9.124649
117.840000 -9.379469
117.860000 -9.398905
117.880000 -9.330331
117.900000 -9.187273
117.920000 -8.863305
117.940000 -8.328530
117.960000 -7.827168
117.980000 -7.017241
118.000000 -6.244059
118.020000 -6.193829
118.040000 -6.420291
118.060000 -6.407338
118.080000 -5.997922
118.100000 -5.875434
118.120000 -5.913720
118.140000 -5.458960
118.160000 -4.972063
118.180000 -4.626208
118.200000 -4.102860
118.220000 -3.496248
118.240000 -3.123325
118.260000 -3.041125
118.280000 -2.785494
118.300000 -2.496814
118.320000 -2.564548
118.340000 -2.455574
118.360000 -2.167231
118.380000 -2.036300
118.400000 -2.023921
118.420000 -2.012956
118.440000 -1.911894
118.460000 -2.033877
118.480000 -2.235021
118.500000 -2.163366
118.520000 -2.137096
118.540000 -2.150777
118.560000 -2.037532
118.580000 -1.780136
118.600000 -1.714838
118.620000 -1.739428
118.640000 -1.565758
118.660000 -1.526521
118.680000 -1.672898
118.700000 -1.531380
118.720000 -1.339632
118.740000 -1.265218
118.760000 -1.116306
118.780000 -0.864120
118.800000 -0.605632
118.820000 -0.604833
118.840000 -0.564196
118.860000 -0.336585
118.880000 -0.349720
118.900000 -0.325158
118.920000 -0.049880
118.940000 0.177689
118.960000 0.357464
118.980000 0.604833
119.000000 0.883949
119.020000 0.989030
119.040000 1.059859
119.060000 1.216837
119.080000 1.394315
119.100000 1.482158
119.120000 1.632793
119.140000 2.022478
119.160000 2.322542
119.180000 2.382141
119.200000 2.700493
119.220000 3.036028
119.240000 3.038913
119.260000 3.199111
119.280000 3.517282
119.300000 3.774775
119.320000 4.084894
119.340000 4.409016
119.360000 4.867528
119.380000 5.273906
119.400000 5.506712
119.420000 5.835049
119.440000 6.139566
119.460000 6.363970
119.480000 6.570225
119.500000 7.016373
119.520000 7.390879
119.540000 7.562490
119.560000 7.875003
119.580000 7.977886
119.600000 7.831299
119.620000 7.684949
119.640000 7.496548
119.660000 7.343841
119.680000 7.149727
119.700000 6.897162
119.720000 6.995396
119.740000 7.073716
119.760000 6.969013
119.780000 7.050135
119.800000 7.104804
119.820000 7.068549
119.840000 6.916963
119.860000 6.703411
119.880000 6.718311
119.900000 6.573432
119.920000 6.399244
119.940000 6.358635
119.960000 6.354504
119.980000 6.278633
120.000000 6.079295
120.020000 5.932512
120.040000 5.803653
120.060000 5.712449
120.080000 5.625600
120.100000 5.611625
120.120000 5.712323
120.140000 5.849570
120.160000 5.930062
120.180000 5.950310
120.200000 5.886735
120.220000 5.742360
120.240000 5.651254
120.260000 5.429329
120.280000 5.199856
120.300000 5.089383
120.320000 5.072425
120.340000 5.022881
120.360000 4.814175
120.380000 4.651092
120.400000 4.493414
120.420000 4.269612
120.440000 3.916237
120.460000 3.551380
120.480000 3.387148
120.500000 3.258583
120.520000 3.064203
120.540000 2.900643
120.560000 2.842641
120.580000 2.781601
120.600000 2.618307
120.620000 2.352930
120.640000 2.136172
120.660000 2.026049
120.680000 1.826081
120.700000 1.644989
120.720000 1.519225
120.740000 1.372036
120.760000 1.271982
120.780000 1.020019
120.800000 0.685871
120.820000 0.340842
120.840000 -0.055537
120.860000 -0.419975
120.880000 -0.873306
120.900000 -1.355932
120.920000 -1.640186
120.940000 -1.965709
120.960000 -2.417639
120.980000 -2.893306
121.000000 -3.342772
121.020000 -3.758826
121.040000 -4.379133
121.060000 -5.037683
121.080000 -5.454675
121.100000 -5.952131
121.120000 -6.697460
121.140000 -7.546960
121.160000 -7.811624
121.180000 -7.870522
121.200000 -8.594986
121.220000 -9.217184
121.240000 -9.407685
121.260000 -9.385924
121.280000 -9.326914
121.300000 -9.249279
121.320000 -8.799505
121.340000 -8.286730
121.360000 -7.868730
121.380000 -6.987162
121.400000 -6.301711
121.420000 -6.476935
121.440000 -6.681146
121.460000 -6.507588
121.480000 -6.142605
121.500000 -6.100174
121.520000 -6.044273
121.540000 -5.506068
121.560000 -5.047009
121.580000 -4.695623
121.600000 -4.095957
121.620000 -3.447713
121.640000 -3.175403
121.660000 -3.069286
121.680000 -2.623881
121.700000 -2.407459
121.720000 -2.504278
121.740000 -2.234265
121.760000 -1.941623
121.780000 -1.871284
121.800000 -1.817413
121.820000 -1.775445
121.840000 -1.716113
121.860000 -1.880778
121.880000 -2.086488
121.900000 -1.954478
121.920000 -2.018599
121.940000 -2.085843
121.960000 -1.854466
121.980000 -1.732146
122.000000 -1.736838
122.020000 -1.667997
122.040000 -1.546700
122.060000 -1.605612
122.080000 -1.721784
122.100000 -1.544137
122.120000 -1.349112
122.140000 -1.321134
122.160000 -1.116642
122.180000 -0.798808
122.200000 -0.607214
122.220000 -0.612311
122.240000 -0.493647
122.260000 -0.276483
122.280000 -0.341878
122.300000 -0.210219
122.320000 0.083698
122.340000 0.248504
122.360000 0.465178
122.380000 0.716748
122.400000 0.928997
122.420000 1.004896
122.440000 1.034597
122.460000 1.225687
122.480000 1.314664
122.500000 1.347558
122.520000 1.613468
122.540000 1.969854
122.560000 2.137922
122.580000 2.294256
122.600000 2.644942
122.620000 2.888152
122.640000 2.917531
122.660000 3.112752
122.680000 3.482329
122.700000 3.759806
122.720000 4.050138
122.740000 4.463279
122.760000 4.969263
122.780000 5.299854
122.800000 5.614762
122.820000 5.974886
122.840000 6.279712
122.860000 6.533593
122.880000 6.841723
122.900000 7.265114
122.920000 7.607609
122.940000 7.854320
122.960000 8.198565
122.980000 8.267685
123.000000 8.048939
123.020000 7.925289
123.040000 7.791431
123.060000 7.546078
123.080000 7.230834
123.100000 7.081670
123.120000 7.198724
123.140000 7.142305
123.160000 6.997104
123.180000 7.086796
123.200000 7.168407
123.220000 7.085717
123.240000 6.834119
123.260000 6.697110
123.280000 6.722610
123.300000 6.516018
123.320000 6.335683
123.340000 6.299470
123.360000 6.298574
123.380000 6.195509
123.400000 5.986593
123.420000 5.846097
123.440000 5.745693
123.460000 5.645737
123.480000 5.626539
123.500000 5.607914
123.520000 5.659236
123.540000 5.851657
123.560000 5.947636
123.580000 5.913678
123.600000 5.796595
123.620000 5.678981
123.640000 5.600240
123.660000 5.386787
123.680000 5.081275
123.700000 5.014703
123.720000 5.087199
123.740000 4.920307
123.760000 4.700482
123.780000 4.636641
123.800000 4.481595
123.820000 4.207437
123.840000 3.831671
123.860000 3.546843
123.880000 3.418348
123.900000 3.224373
123.920000 2.995446
123.940000 2.974469
123.960000 2.915669
123.980000 2.754322
124.000000 2.633879
124.020000 2.431110
124.040000 2.204942
124.060000 2.019089
124.080000 1.823182
124.100000 1.695556
124.120000 1.509703
124.140000 1.352137
124.160000 1.230966
124.180000 1.019501
124.200000 0.610435
124.220000 0.215316
124.240000 -0.074092
124.260000 -0.556928
124.280000 -1.084351
124.300000 -1.494103
124.320000 -1.815088
124.340000 -2.181010
124.360000 -2.652014
124.380000 -3.072689
124.400000 -3.443512
124.420000 -3.965865
124.440000 -4.633812
124.460000 -5.186889
124.480000 -5.630193
124.500000 -6.288632
124.520000 -7.165424
124.540000 -7.837852
124.560000 -7.961782
124.580000 -8.261258
124.600000 -8.927608
124.620000 -9.446363
124.640000 -9.560560
124.660000 -9.537077
124.680000 -9.483976
124.700000 -9.300420
124.720000 -8.900848
124.740000 -8.399933
124.760000 -7.772148
124.780000 -6.888620
124.800000 -6.450301
124.820000 -6.591034
124.840000 -6.717443
124.860000 -6.412421
124.880000 -6.073442
124.900000 -6.096323
124.920000 -5.866598
124.940000 -5.320299
124.960000 -4.848974
124.980000 -4.421073
125.000000 -3.766920
125.020000 -3.219976
125.040000 -3.017851
125.060000 -2.824507
125.080000 -2.492543
125.100000 -2.344990
125.120000 -2.394100
125.140000 -2.156602
125.160000 -1.851357
125.180000 -1.838880
125.200000 -1.780164
125.220000 -1.729192
125.240000 -1.694589
125.260000 -1.933403
125.280000 -2.047810
125.300000 -1.939228
125.320000 -2.006472
125.340000 -1.987316
125.360000 -1.746514
125.380000 -1.596748
125.400000 -1.626491
125.420000 -1.514786
125.440000 -1.447192
125.460000 -1.525093
125.480000 -1.623214
125.500000 -1.460845
125.520000 -1.302425
125.540000 -1.287932
125.560000 -1.042719
125.580000 -0.765760
125.600000 -0.659867
125.620000 -0.674934
125.640000 -0.552699
125.660000 -0.429497
125.680000 -0.504933
125.700000 -0.339666
125.720000 -0.095251
125.740000 0.096273
125.760000 0.335983
125.780000 0.550528
125.800000 0.795237
125.820000 0.838620
125.840000 0.898582
125.860000 1.089266
125.880000 1.156370
125.900000 1.241300
125.920000 1.592939
125.940000 1.888956
125.960000 2.103180
125.980000 2.361584
126.000000 2.673537
126.020000 2.922587
126.040000 2.977886
126.060000 3.238152
126.080000 3.628146
126.100000 3.887531
126.120000 4.264991
126.140000 4.704515
126.160000 5.184382
126.180000 5.527955
126.200000 5.819575
126.220000 6.210633
126.240000 6.447430
126.260000 6.685627
126.280000 7.004946
126.300000 7.395640
126.320000 7.724103
126.340000 7.950607
126.360000 8.190751
126.380000 8.220186
126.400000 8.024307
126.420000 7.824647
126.440000 7.690117
126.460000 7.418171
126.480000 7.165831
126.500000 7.064264
126.520000 7.094904
126.540000 7.116343
126.560000 7.028640
126.580000 7.061716
126.600000 7.143593
126.620000 7.023052
126.640000 6.784099
126.660000 6.661275
126.680000 6.659665
126.700000 6.473000
126.720000 6.320993
126.740000 6.301417
126.760000 6.315812
126.780000 6.203519
126.800000 5.977169
126.820000 5.840538
126.840000 5.771305
126.860000 5.683126
126.880000 5.623094
126.900000 5.631776
126.920000 5.774148
126.940000 5.945269
126.960000 5.970993
126.980000 5.951095
127.000000 5.851895
127.020000 5.734533
127.040000 5.616064
127.060000 5.348138
127.080000 5.171975
127.100000 5.116704
127.120000 5.112349
127.140000 5.020613
127.160000 4.801418
127.180000 4.667378
127.200000 4.510638
127.220000 4.194022
127.240000 3.796873
127.260000 3.510182
127.280000 3.357685
127.300000 3.222063
127.320000 3.006299
127.340000 2.891009
127.360000 2.904116
127.380000 2.766519
127.400000 2.584083
127.420000 2.337988
127.440000 2.119283
127.460000 1.979838
127.480000 1.782951
127.500000 1.635859
127.520000 1.493025
127.540000 1.374388
127.560000 1.278857
127.580000 0.994225
127.600000 0.614216
127.620000 0.222402
127.640000 -0.145747
127.660000 -0.571435
127.680000 -1.101323
127.700000 -1.509115
127.720000 -1.749595
127.740000 -2.139014
127.760000 -2.623139
127.780000 -3.091999
127.800000 -3.561350
127.820000 -4.074980
127.840000 -4.809764
127.860000 -5.408534
127.880000 -5.860129
127.900000 -6.478671
127.920000 -7.366303
127.940000 -7.968490
127.960000 -8.071582
127.980000 -8.430853
128.000000 -9.093240
128.020000 -9.570573
128.040000 -9.696407
128.060000 -9.618128
128.080000 -9.550842
128.100000 -9.313205
128.120000 -8.827176
128.140000 -8.351720
128.160000 -7.676883
128.180000 -6.770796
128.200000 -6.389890
128.220000 -6.543647
128.240000 -6.645900
128.260000 -6.384345
128.280000 -6.016448
128.300000 -6.016014
128.320000 -5.746757
128.340000 -5.201914
128.360000 -4.726346
128.380000 -4.265761
128.400000 -3.672215
128.420000 -3.138042
128.440000 -2.937808
128.460000 -2.763312
128.480000 -2.438224
128.500000 -2.306466
128.520000 -2.324209
128.540000 -2.072316
128.560000 -1.837424
128.580000 -1.762786
128.600000 -1.750925
128.620000 -1.721812
128.640000 -1.684297
128.660000 -1.892443
128.680000 -1.998420
128.700000 -1.918461
128.720000 -1.929860
128.740000 -1.935825
128.760000 -1.729528
128.780000 -1.624054
128.800000 -1.669761
128.820000 -1.610177
128.840000 -1.568909
128.860000 -1.661079
128.880000 -1.732580
128.900000 -1.584817
128.920000 -1.446450
128.940000 -1.410615
128.960000 -1.177977
128.980000 -0.942637
129.000000 -0.820303
129.020000 -0.837373
129.040000 -0.727699
129.060000 -0.558986
129.080000 -0.608390
129.100000 -0.434328
129.120000 -0.145691
129.140000 0.075604
129.160000 0.339035
129.180000 0.577709
129.200000 0.803471
129.220000 0.916142
129.240000 0.971666
129.260000 1.172320
129.280000 1.341270
129.300000 1.431158
129.320000 1.783973
129.340000 2.152653
129.360000 2.347874
129.380000 2.622130
129.400000 2.924015
129.420000 3.139387
129.440000 3.245294
129.460000 3.492215
129.480000 3.856107
129.500000 4.160134
129.520000 4.514769
129.540000 4.953621
129.560000 5.430001
129.580000 5.742374
129.600000 5.993805
129.620000 6.359657
129.640000 6.600193
129.660000 6.773106
129.680000 7.080396
129.700000 7.456162
129.720000 7.758439
129.740000 8.023201
129.760000 8.175543
129.780000 8.207163
129.800000 8.042203
129.820000 7.795338
129.840000 7.658021
129.860000 7.375797
129.880000 7.122476
129.900000 7.035389
129.920000 7.047348
129.940000 7.009021
129.960000 6.945824
129.980000 6.960975
130.000000 6.991713
130.020000 6.900943
130.040000 6.646656
130.060000 6.546686
130.080000 6.562412
130.100000 6.392397
130.120000 6.275819
130.140000 6.257880
130.160000 6.289332
130.180000 6.212705
130.200000 5.988932
130.220000 5.829531
130.240000 5.786289
130.260000 5.741940
130.280000 5.696387
130.300000 5.690044
130.320000 5.815640
130.340000 6.037775
130.360000 6.052787
130.380000 5.992657
130.400000 5.876233
130.420000 5.769555
130.440000 5.676657
130.460000 5.392752
130.480000 5.194717
130.500000 5.219027
130.520000 5.215232
130.540000 5.108610
130.560000 4.895185
130.580000 4.720997
130.600000 4.597809
130.620000 4.229171
130.640000 3.859314
130.660000 3.607547
130.680000 3.409554
130.700000 3.314359
130.720000 3.086566
130.740000 2.960746
130.760000 2.943648
130.780000 2.753006
130.800000 2.565319
130.820000 2.260731
130.840000 2.015603
130.860000 1.893171
130.880000 1.619825
130.900000 1.451491
130.920000 1.311373
130.940000 1.159521
130.960000 1.020047
130.980000 0.716888
131.000000 0.323002
131.020000 -0.041128
131.040000 -0.474392
131.060000 -0.894899
131.080000 -1.335361
131.100000 -1.753207
131.120000 -2.000367
131.140000 -2.376175
131.160000 -2.811232
131.180000 -3.292668
131.200000 -3.771555
131.220000 -4.253424
131.240000 -4.922617
131.260000 -5.520533
131.280000 -5.966554
131.300000 -6.603497
131.320000 -7.392279
131.340000 -7.889076
131.360000 -7.966571
131.380000 -8.397469
131.400000 -9.077234
131.420000 -9.459960
131.440000 -9.541866
131.460000 -9.447231
131.480000 -9.437443
131.500000 -9.173269
131.520000 -8.582761
131.540000 -8.145142
131.560000 -7.384269
131.580000 -6.555536
131.600000 -6.437067
131.620000 -6.640956
131.640000 -6.592099
131.660000 -6.192947
131.680000 -5.990038
131.700000 -5.992881
131.720000 -5.577359
131.740000 -4.943748
131.760000 -4.566862
131.780000 -4.075918
131.800000 -3.402062
131.820000 -3.011340
131.840000 -2.927152
131.860000 -2.666031
131.880000 -2.361430
131.900000 -2.394226
131.920000 -2.326981
131.940000 -2.014216
131.960000 -1.880904
131.980000 -1.881212
132.000000 -1.843767
132.020000 -1.808353
132.040000 -1.881338
132.060000 -2.160691
132.080000 -2.108865
132.100000 -2.012004
132.120000 -2.142837
132.140000 -2.009567
132.160000 -1.721980
132.180000 -1.724991
132.200000 -1.736697
132.220000 -1.615582
132.240000 -1.606130
132.260000 -1.720692
132.280000 -1.667549
132.300000 -1.488208
132.320000 -1.355274
132.340000 -1.243779
132.360000 -0.955828
132.380000 -0.717084
132.400000 -0.723974
132.420000 -0.675074
132.440000 -0.488816
132.460000 -0.476002
132.480000 -0.480834
132.500000 -0.169595
132.520000 0.063715
132.540000 0.251557
132.560000 0.514288
132.580000 0.758772
132.600000 0.918019
132.620000 0.961345
132.640000 1.089476
132.660000 1.296180
132.680000 1.397410
132.700000 1.580098
132.720000 1.998434
132.740000 2.271276
132.760000 2.420230
132.780000 2.748847
132.800000 3.011914
132.820000 3.078542
132.840000 3.225605
132.860000 3.545638
132.880000 3.843952
132.900000 4.122591
132.920000 4.498973
132.940000 4.961813
132.960000 5.345323
132.980000 5.565358
133.000000 5.858672
133.020000 6.182542
133.040000 6.355848
133.060000 6.573208
133.080000 6.996054
133.100000 7.324923
133.120000 7.622914
133.140000 7.937962
133.160000 8.060744
133.180000 8.005234
133.200000 7.819354
133.220000 7.635980
133.240000 7.530590
133.260000 7.224043
133.280000 7.045318
133.300000 7.112464
133.320000 7.058005
133.340000 7.016275
133.360000 7.001501
133.380000 7.012270
133.400000 6.971632
133.420000 6.747942
133.440000 6.564148
133.460000 6.537822
133.480000 6.423456
133.500000 6.276239
133.520000 6.259477
133.540000 6.268579
133.560000 6.226261
133.580000 6.070305
133.600000 5.909028
133.620000 5.779595
133.640000 5.732670
133.660000 5.690758
133.680000 5.654783
133.700000 5.761965
133.720000 5.988862
133.740000 6.116614
133.760000 6.119653
133.780000 6.052647
133.800000 5.957872
133.820000 5.860353
133.840000 5.596123
133.860000 5.353515
133.880000 5.270321
133.900000 5.266610
133.920000 5.168698
133.940000 4.990618
133.960000 4.853791
133.980000 4.722943
134.000000 4.430973
134.020000 4.011908
134.040000 3.713357
134.060000 3.486768
134.080000 3.295636
134.100000 3.132189
134.120000 2.938592
134.140000 2.905741
134.160000 2.828470
134.180000 2.564773
134.200000 2.351207
134.220000 2.070944
134.240000 1.852561
134.260000 1.691257
134.280000 1.457540
134.300000 1.330768
134.320000 1.238626
134.340000 1.129470
134.360000 0.904351
134.380000 0.540432
134.400000 0.174944
134.420000 -0.176751
134.440000 -0.609553
134.460000 -1.086451
134.480000 -1.505082
134.500000 -1.789042
134.520000 -2.049141
134.540000 -2.523715
134.560000 -2.942765
134.580000 -3.316599
134.600000 -3.782407
134.620000 -4.350412
134.640000 -5.014045
134.660000 -5.441778
134.680000 -5.815794
134.700000 -6.543843
134.720000 -7.314980
134.740000 -7.715253
134.760000 -7.801499
134.780000 -8.280036
134.800000 -8.999515
134.820000 -9.342220
134.840000 -9.356601
134.860000 -9.276390
134.880000 -9.271209
134.900000 -8.928826
134.920000 -8.357419
134.940000 -7.851253
134.960000 -7.081012
134.980000 -6.361155
135.000000 -6.218811
135.020000 -6.367163
135.040000 -6.394861
135.060000 -6.072728
135.080000 -5.818077
135.100000 -5.799424
135.120000 -5.463931
135.140000 -4.927813
135.160000 -4.551276
135.180000 -4.076282
135.200000 -3.470482
135.220000 -3.123563
135.240000 -2.978334
135.260000 -2.750737
135.280000 -2.483021
135.300000 -2.467995
135.320000 -2.425691
135.340000 -2.176431
135.360000 -2.027673
135.380000 -1.999387
135.400000 -2.051955
135.420000 -1.977891
135.440000 -2.031300
135.460000 -2.245622
135.480000 -2.226157
135.500000 -2.159347
135.520000 -2.157653
135.540000 -2.077777
135.560000 -1.844915
135.580000 -1.767253
135.600000 -1.756190
135.620000 -1.650913
135.640000 -1.623298
135.660000 -1.656486
135.680000 -1.637764
135.700000 -1.411525
135.720000 -1.266352
135.740000 -1.218447
135.760000 -0.929628
135.780000 -0.698152
135.800000 -0.666784
135.820000 -0.624928
135.840000 -0.483592
135.860000 -0.380597
135.880000 -0.330885
135.900000 -0.148842
135.920000 0.150592
135.940000 0.362673
135.960000 0.578689
135.980000 0.813091
136.000000 0.961821
136.020000 1.055602
136.040000 1.184643
136.060000 1.329438
136.080000 1.501315
136.100000 1.649891
136.120000 2.005674
136.140000 2.317179
136.160000 2.457437
136.180000 2.708293
136.200000 2.984061
136.220000 3.150925
136.240000 3.247591
136.260000 3.525628
136.280000 3.862100
136.300000 4.178226
136.320000 4.502600
136.340000 4.892230
136.360000 5.283596
136.380000 5.606304
136.400000 5.813497
136.420000 6.091828
136.440000 6.376881
136.460000 6.551069
136.480000 6.914232
136.500000 7.278068
136.520000 7.529554
136.540000 7.813122
136.560000 7.885758
136.580000 7.828400
136.600000 7.721414
136.620000 7.499055
136.640000 7.411296
136.660000 7.219646
136.680000 7.033205
136.700000 7.043469
136.720000 7.091991
136.740000 7.087986
136.760000 7.038890
136.780000 7.048034
136.800000 7.069795
136.820000 6.888984
136.840000 6.708103
136.860000 6.637274
136.880000 6.566725
136.900000 6.441660
136.920000 6.316022
136.940000 6.320951
136.960000 6.328247
136.980000 6.130128
137.000000 5.944429
137.020000 5.871681
137.040000 5.802589
137.060000 5.766880
137.080000 5.719521
137.100000 5.796343
137.120000 5.986621
137.140000 6.050308
137.160000 6.056204
137.180000 5.975881
137.200000 5.810865
137.220000 5.693195
137.240000 5.523488
137.260000 5.294407
137.280000 5.158742
137.300000 5.130371
137.320000 5.071445
137.340000 4.946885
137.360000 4.712581
137.380000 4.509840
137.400000 4.332095
137.420000 3.956553
137.440000 3.600980
137.460000 3.337814
137.480000 3.221642
137.500000 3.076680
137.520000 2.828372
137.540000 2.780985
137.560000 2.665681
137.580000 2.465307
137.600000 2.262594
137.620000 1.969405
137.640000 1.795610
137.660000 1.637834
137.680000 1.434505
137.700000 1.321974
137.720000 1.187275
137.740000 1.034177
137.760000 0.885951
137.780000 0.586349
137.800000 0.184550
137.820000 -0.152217
137.840000 -0.535419
137.860000 -0.943519
137.880000 -1.374584
137.900000 -1.743419
137.920000 -2.021988
137.940000 -2.415189
137.960000 -2.894356
137.980000 -3.348065
138.000000 -3.789339
138.020000 -4.359444
138.040000 -5.000056
138.060000 -5.490776
138.080000 -5.963572
138.100000 -6.644205
138.120000 -7.568903
138.140000 -7.886780
138.160000 -7.922600
138.180000 -8.591135
138.200000 -9.236606
138.220000 -9.493568
138.240000 -9.426800
138.260000 -9.356419
138.280000 -9.313219
138.300000 -8.857843
138.320000 -8.288634
138.340000 -7.849825
138.360000 -6.946468
138.380000 -6.255864
138.400000 -6.322226
138.420000 -6.541925
138.440000 -6.410587
138.460000 -5.947482
138.480000 -5.944933
138.500000 -5.925594
138.520000 -5.330241
138.540000 -4.904091
138.560000 -4.555561
138.580000 -3.986506
138.600000 -3.350599
138.620000 -3.040943
138.640000 -2.976668
138.660000 -2.611012
138.680000 -2.369426
138.700000 -2.508451
138.720000 -2.328508
138.740000 -2.033303
138.760000 -2.015589
138.780000 -1.977723
138.800000 -1.952461
138.820000 -1.890608
138.840000 -2.064488
138.860000 -2.269189
138.880000 -2.131550
138.900000 -2.180870
138.920000 -2.223118
138.940000 -2.015378
138.960000 -1.774745
138.980000 -1.808157
139.000000 -1.756414
139.020000 -1.539390
139.040000 -1.599030
139.060000 -1.717457
139.080000 -1.527739
139.100000 -1.332980
139.120000 -1.279600
139.140000 -1.124666
139.160000 -0.789286
139.180000 -0.602985
139.200000 -0.626132
139.220000 -0.528725
139.240000 -0.310777
139.260000 -0.378861
139.280000 -0.290276
139.300000 0.007268
139.320000 0.203161
139.340000 0.382656
139.360000 0.625684
139.380000 0.896005
139.400000 0.954133
139.420000 1.024878
139.440000 1.208168
139.460000 1.311219
139.480000 1.427111
139.500000 1.640704
139.520000 2.041803
139.540000 2.250649
139.560000 2.372016
139.580000 2.769740
139.600000 2.949739
139.620000 2.986820
139.640000 3.200819
139.660000 3.561140
139.680000 3.798973
139.700000 4.064421
139.720000 4.546137
139.740000 5.004747
139.760000 5.335619
139.780000 5.576196
139.800000 5.965560
139.820000 6.280020
139.840000 6.415264
139.860000 6.666457
139.880000 7.131690
139.900000 7.478022
139.920000 7.639046
139.940000 7.947540
139.960000 8.028046
139.980000 7.909549
140.000000 7.694472
140.020000 7.518939
140.040000 7.425089
140.060000 7.112464
140.080000 7.004820
140.100000 7.072764
140.120000 7.065552
140.140000 7.065903
140.160000 7.046340
140.180000 7.109887
140.200000 7.044043
140.220000 6.818981
140.240000 6.687462
140.260000 6.658419
140.280000 6.475619
140.300000 6.363648
140.320000 6.303643
140.340000 6.292567
140.360000 6.227871
140.380000 5.993105
140.400000 5.880686
140.420000 5.761685
140.440000 5.670649
140.460000 5.663381
140.480000 5.652767
140.500000 5.766922
140.520000 5.930160
140.540000 6.020523
140.560000 6.050995
140.580000 5.935453
140.600000 5.804283
140.620000 5.681782
140.640000 5.457210
140.660000 5.249736
140.680000 5.181862
140.700000 5.153015
140.720000 5.088277
140.740000 4.891166
140.760000 4.738893
140.780000 4.578191
140.800000 4.264977
140.820000 3.887573
140.840000 3.594160
140.860000 3.377738
140.880000 3.205076
140.900000 3.018664
140.920000 2.886472
140.940000 2.855959
140.960000 2.706683
140.980000 2.474157
141.000000 2.246182
141.020000 2.001347
141.040000 1.785681
141.060000 1.606228
141.080000 1.423372
141.100000 1.343875
141.120000 1.237337
141.140000 1.078315
141.160000 0.883570
141.180000 0.571617
141.200000 0.197826
141.220000 -0.168965
141.240000 -0.633554
141.260000 -1.066762
141.280000 -1.458283
141.300000 -1.777601
141.320000 -2.071112
141.340000 -2.545434
141.360000 -2.971486
141.380000 -3.389109
141.400000 -3.879086
141.420000 -4.515876
141.440000 -5.139613
141.460000 -5.556830
141.480000 -6.100426
141.500000 -6.942169
141.520000 -7.654408
141.540000 -7.851813
141.560000 -8.107445
141.580000 -8.753364
141.600000 -9.343424
141.620000 -9.503328
141.640000 -9.459092
141.660000 -9.425008
141.680000 -9.239351
141.700000 -8.808033
141.720000 -8.319498
141.740000 -7.733625
141.760000 -6.835771
141.780000 -6.319873
141.800000 -6.478895
141.820000 -6.605836
141.840000 -6.395617
141.860000 -6.050378
141.880000 -6.039134
141.900000 -5.864120
141.920000 -5.356148
141.940000 -4.946535
141.960000 -4.522695
141.980000 -3.903004
142.000000 -3.356523
142.020000 -3.120398
142.040000 -2.918358
142.060000 -2.617313
142.080000 -2.425509
142.100000 -2.488188
142.120000 -2.248955
142.140000 -1.967445
142.160000 -1.952489
142.180000 -1.868441
142.200000 -1.803045
142.220000 -1.773694
142.240000 -1.901279
142.260000 -2.041453
142.280000 -1.947196
142.300000 -1.949465
142.320000 -1.969643
142.340000 -1.764620
142.360000 -1.605556
142.380000 -1.664790
142.400000 -1.566655
142.420000 -1.481710
142.440000 -1.608595
142.460000 -1.639010
142.480000 -1.541617
142.500000 -1.416426
142.520000 -1.366392
142.540000 -1.187317
142.560000 -0.894045
142.580000 -0.744237
142.600000 -0.754291
142.620000 -0.608726
142.640000 -0.441722
142.660000 -0.501853
142.680000 -0.352185
142.700000 -0.096413
142.720000 0.104955
142.740000 0.332664
142.760000 0.576715
142.780000 0.797198
142.800000 0.904995
142.820000 1.028001
142.840000 1.153807
142.860000 1.297132
142.880000 1.395856
142.900000 1.667661
142.920000 2.021988
142.940000 2.178812
142.960000 2.397670
142.980000 2.755176
143.000000 2.965017
143.020000 3.019686
143.040000 3.274351
143.060000 3.617378
143.080000 3.896591
143.100000 4.190325
143.120000 4.586509
143.140000 5.111285
143.160000 5.441946
143.180000 5.705840
143.200000 6.038097
143.220000 6.376167
143.240000 6.605108
143.260000 6.833867
143.280000 7.260871
143.300000 7.566173
143.320000 7.846072
143.340000 8.065715
143.360000 8.089437
143.380000 8.043338
143.400000 7.832307
143.420000 7.666787
143.440000 7.503438
143.460000 7.267439
143.480000 7.135863
143.500000 7.172034
143.520000 7.137866
143.540000 7.122378
143.560000 7.108935
143.580000 7.116077
143.600000 7.104986
143.620000 6.855334
143.640000 6.703635
143.660000 6.664524
143.680000 6.526703
143.700000 6.373226
143.720000 6.264882
143.740000 6.248526
143.760000 6.182248
143.780000 5.987405
143.800000 5.800698
143.820000 5.673828
143.840000 5.667106
143.860000 5.619257
143.880000 5.589486
143.900000 5.717196
143.920000 5.881708
143.940000 5.986635
143.960000 5.970797
143.980000 5.835147
144.000000 5.756084
144.020000 5.662065
144.040000 5.412203
144.060000 5.174902
144.080000 5.063281
144.100000 5.095573
144.120000 5.011679
144.140000 4.771367
144.160000 4.600036
144.180000 4.484354
144.200000 4.228078
144.220000 3.856681
144.240000 3.474949
144.260000 3.340601
144.280000 3.246414
144.300000 2.992533
144.320000 2.804804
144.340000 2.749967
144.360000 2.692833
144.380000 2.479380
144.400000 2.176907
144.420000 1.907300
144.440000 1.803578
144.460000 1.631924
144.480000 1.411861
144.500000 1.217355
144.520000 1.188144
144.540000 1.091730
144.560000 0.811201
144.580000 0.474070
144.600000 0.118258
144.620000 -0.187855
144.640000 -0.613515
144.660000 -1.131430
144.680000 -1.470564
144.700000 -1.781074
144.720000 -2.139756
144.740000 -2.547562
144.760000 -3.007223
144.780000 -3.431637
144.800000 -3.918884
144.820000 -4.592054
144.840000 -5.164119
144.860000 -5.625124
144.880000 -6.316919
144.900000 -7.050667
144.920000 -7.678676
144.940000 -7.948661
144.960000 -8.195526
144.980000 -8.870656
145.000000 -9.362679
145.020000 -9.517178
145.040000 -9.495711
145.060000 -9.356405
145.080000 -9.218794
145.100000 -8.824739
145.120000 -8.256847
145.140000 -7.590637
145.160000 -6.773176
145.180000 -6.445077
145.200000 -6.614616
145.220000 -6.678499
145.240000 -6.473112
145.260000 -6.149914
145.280000 -6.131878
145.300000 -5.938786
145.320000 -5.322287
145.340000 -4.895157
145.360000 -4.397869
145.380000 -3.791537
145.400000 -3.296855
145.420000 -3.000543
145.440000 -2.891961
145.460000 -2.546442
145.480000 -2.369748
145.500000 -2.440633
145.520000 -2.151463
145.540000 -1.877081
145.560000 -1.822286
145.580000 -1.786493
145.600000 -1.762996
145.620000 -1.715748
145.640000 -1.931428
145.660000 -2.055526
145.680000 -1.942057
145.700000 -1.966759
145.720000 -1.968481
145.740000 -1.735661
145.760000 -1.623648
145.780000 -1.637736
145.800000 -1.598288
145.820000 -1.539488
145.840000 -1.632989
145.860000 -1.734905
145.880000 -1.557454
145.900000 -1.444447
145.920000 -1.367877
145.940000 -1.158947
145.960000 -0.919377
145.980000 -0.729491
146.000000 -0.789468
146.020000 -0.657206
146.040000 -0.462139
146.060000 -0.535853
146.080000 -0.361091
146.100000 -0.101216
146.120000 0.133396
146.140000 0.373890
146.160000 0.571337
146.180000 0.797212
146.200000 0.894941
146.220000 0.924908
146.240000 1.107470
146.260000 1.222760
146.280000 1.341032
146.300000 1.670546
146.320000 2.025531
146.340000 2.228160
146.360000 2.487572
146.380000 2.837026
146.400000 3.022711
146.420000 3.111786
146.440000 3.361914
146.460000 3.728942
146.480000 4.029315
146.500000 4.333510
146.520000 4.773103
146.540000 5.284632
146.560000 5.623584
146.580000 5.848982
146.600000 6.172880
146.620000 6.506384
146.640000 6.656542
146.660000 6.903043
146.680000 7.319139
146.700000 7.616935
146.720000 7.935400
146.740000 8.080881
146.760000 8.067927
146.780000 8.011424
146.800000 7.816609
146.820000 7.606278
146.840000 7.399155
146.860000 7.207547
146.880000 7.124689
146.900000 7.130976
146.920000 7.140050
146.940000 7.081264
146.960000 7.118667
146.980000 7.105028
147.000000 6.987764
147.020000 6.776509
147.040000 6.644275
147.060000 6.567425
147.080000 6.426201
147.100000 6.336439
147.120000 6.232870
147.140000 6.290550
147.160000 6.183354
147.180000 5.986215
147.200000 5.811635
147.220000 5.703277
147.240000 5.725178
147.260000 5.607074
147.280000 5.615224
147.300000 5.793571
147.320000 5.958894
147.340000 6.039232
147.360000 5.957634
147.380000 5.858854
147.400000 5.769205
147.420000 5.585859
147.440000 5.283232
147.460000 5.111257
147.480000 5.089565
147.500000 5.022055
147.520000 4.925558
147.540000 4.754941
147.560000 4.641318
147.580000 4.435622
147.600000 4.143512
147.620000 3.803426
147.640000 3.512954
147.660000 3.338150
147.680000 3.157059
147.700000 3.031687
147.720000 2.935582
147.740000 2.815447
147.760000 2.737350
147.780000 2.524401
147.800000 2.236380
147.820000 1.992119
147.840000 1.794475
147.860000 1.637148
147.880000 1.434043
147.900000 1.244773
147.920000 1.197246
147.940000 1.065614
147.960000 0.749068
147.980000 0.381816
148.000000 0.006610
148.020000 -0.354817
148.040000 -0.848030
148.060000 -1.357850
148.080000 -1.670462
148.100000 -1.948624
148.120000 -2.337834
148.140000 -2.767457
148.160000 -3.154076
148.180000 -3.595868
148.200000 -4.185130
148.220000 -4.825112
148.240000 -5.327763
148.260000 -5.904631
148.280000 -6.578711
148.300000 -7.361234
148.320000 -7.834211
148.340000 -7.956797
148.360000 -8.382303
148.380000 -9.026836
148.400000 -9.422431
148.420000 -9.522807
148.440000 -9.458882
148.460000 -9.350888
148.480000 -9.152670
148.500000 -8.654010
148.520000 -8.097222
148.540000 -7.376329
148.560000 -6.555872
148.580000 -6.356786
148.600000 -6.534853
148.620000 -6.579342
148.640000 -6.196392
148.660000 -5.958306
148.680000 -5.904673
148.700000 -5.590438
148.720000 -4.998376
148.740000 -4.516394
148.760000 -4.090691
148.780000 -3.386322
148.800000 -2.957091
148.820000 -2.821944
148.840000 -2.598675
148.860000 -2.319868
148.880000 -2.272368
148.900000 -2.299269
148.920000 -2.029172
148.940000 -1.840939
148.960000 -1.833783
148.980000 -1.862448
149.000000 -1.772014
149.020000 -1.811840
149.040000 -2.094974
149.060000 -2.111288
149.080000 -2.039702
149.100000 -2.089470
149.120000 -2.056940
149.140000 -1.809879
149.160000 -1.749483
149.180000 -1.769605
149.200000 -1.681216
149.220000 -1.675419
149.240000 -1.769675
149.260000 -1.807695
149.280000 -1.587044
149.300000 -1.509017
149.320000 -1.447626
149.340000 -1.171676
149.360000 -0.915708
149.380000 -0.859443
149.400000 -0.855017
149.420000 -0.658172
149.440000 -0.558832
149.460000 -0.568439
149.480000 -0.359942
149.500000 -0.028385
149.520000 0.202265
149.540000 0.434973
149.560000 0.702465
149.580000 0.919979
149.600000 0.973976
149.620000 1.081662
149.640000 1.281518
149.660000 1.391543
149.680000 1.541505
149.700000 1.910339
149.720000 2.195770
149.740000 2.391397
149.760000 2.636946
149.780000 2.953184
149.800000 3.101508
149.820000 3.155687
149.840000 3.454840
149.860000 3.776148
149.880000 4.049535
149.900000 4.367706
149.920000 4.838513
149.940000 5.274942
149.960000 5.571659
149.980000 5.818763
150.000000 6.152113
150.020000 6.423974
150.040000 6.592967
150.060000 6.906026
150.080000 7.321436
150.100000 7.598227
150.120000 7.856155
150.140000 8.075433
150.160000 8.012334
150.180000 7.859991
150.200000 7.716611
150.220000 7.535393
150.240000 7.301075
150.260000 7.082174
150.280000 7.053902
150.300000 7.131242
150.320000 7.052683
150.340000 6.991083
150.360000 7.082651
150.380000 7.087692
150.400000 6.886491
150.420000 6.680362
150.440000 6.615792
150.460000 6.577367
150.480000 6.360133
150.500000 6.254562
150.520000 6.249772
150.540000 6.228137
150.560000 6.090708
150.580000 5.862257
150.600000 5.785729
150.620000 5.699496
150.640000 5.646507
150.660000 5.613067
150.680000 5.672764
150.700000 5.843395
150.720000 6.009839
150.740000 6.054509
150.760000 5.974186
150.780000 5.882982
150.800000 5.761867
150.820000 5.596375
150.840000 5.335787
150.860000 5.136841
150.880000 5.150116
150.900000 5.133424
150.920000 4.937293
150.940000 4.755081
150.960000 4.664017
150.980000 4.468516
151.000000 4.110408
151.020000 3.712152
151.040000 3.467121
151.060000 3.373369
151.080000 3.168864
151.100000 2.924687
151.120000 2.869570
151.140000 2.820558
151.160000 2.638458
151.180000 2.394212
151.200000 2.111666
151.220000 1.921654
151.240000 1.738042
151.260000 1.501133
151.280000 1.332224
151.300000 1.188914
151.320000 1.107848
151.340000 0.906004
151.360000 0.580468
151.380000 0.238505
151.400000 -0.125260
151.420000 -0.507510
151.440000 -0.976091
151.460000 -1.452317
151.480000 -1.774437
151.500000 -2.033471
151.520000 -2.428996
151.540000 -2.838454
151.560000 -3.265123
151.580000 -3.716311
151.600000 -4.217464
151.620000 -4.900086
151.640000 -5.411125
151.660000 -5.872802
151.680000 -6.594003
151.700000 -7.412906
151.720000 -7.818962
151.740000 -7.927810
151.760000 -8.393828
151.780000 -9.087527
151.800000 -9.448505
151.820000 -9.453336
151.840000 -9.419322
151.860000 -9.325150
151.880000 -9.025912
151.900000 -8.502522
151.920000 -7.974189
151.940000 -7.233509
151.960000 -6.365412
151.980000 -6.291110
152.000000 -6.631070
152.020000 -6.470801
152.040000 -6.064396
152.060000 -5.955408
152.080000 -5.953139
152.100000 -5.555415
152.120000 -4.903335
152.140000 -4.569256
152.160000 -4.100004
152.180000 -3.342281
152.200000 -3.025245
152.220000 -2.957161
152.240000 -2.685580
152.260000 -2.431531
152.280000 -2.469144
152.300000 -2.488482
152.320000 -2.116987
152.340000 -2.021834
152.360000 -2.063998
152.380000 -2.007957
152.400000 -1.932086
152.420000 -2.052725
152.440000 -2.317431
152.460000 -2.244320
152.480000 -2.160915
152.500000 -2.275253
152.520000 -2.133483
152.540000 -1.773806
152.560000 -1.817511
152.580000 -1.791549
152.600000 -1.623424
152.620000 -1.612684
152.640000 -1.738924
152.660000 -1.705792
152.680000 -1.436549
152.700000 -1.386683
152.720000 -1.281672
152.740000 -0.947146
152.760000 -0.723232
152.780000 -0.671055
152.800000 -0.653831
152.820000 -0.410481
152.840000 -0.373624
152.860000 -0.420521
152.880000 -0.054417
152.900000 0.185096
152.920000 0.317092
152.940000 0.647950
152.960000 0.898974
152.980000 1.030102
153.000000 1.088846
153.020000 1.157112
153.040000 1.402451
153.060000 1.404678
153.080000 1.540258
153.100000 1.986994
153.120000 2.192045
153.140000 2.318075
153.160000 2.664140
153.180000 2.933971
153.200000 2.991049
153.220000 3.131013
153.240000 3.479724
153.260000 3.761248
153.280000 4.029749
153.300000 4.435832
153.320000 4.933652
153.340000 5.358206
153.360000 5.597566
153.380000 5.933268
153.400000 6.318851
153.420000 6.452541
153.440000 6.631784
153.460000 7.101191
153.480000 7.368599
153.500000 7.617691
153.520000 7.927236
153.540000 8.008343
153.560000 7.931731
153.580000 7.706220
153.600000 7.545392
153.620000 7.402095
153.640000 7.095492
153.660000 6.941245
153.680000 7.008895
153.700000 7.042713
153.720000 6.971716
153.740000 7.016331
153.760000 7.135275
153.780000 7.066477
153.800000 6.849999
153.820000 6.705624
153.840000 6.667521
153.860000 6.566122
153.880000 6.364068
153.900000 6.311513
153.920000 6.401247
153.940000 6.281644
153.960000 6.114304
153.980000 5.981944
154.000000 5.826059
154.020000 5.743033
154.040000 5.664180
154.060000 5.630305
154.080000 5.707898
154.100000 5.846868
154.120000 5.973612
154.140000 6.029485
154.160000 5.935887
154.180000 5.748830
154.200000 5.678813
154.220000 5.510885
154.240000 5.230901
154.260000 5.079469
154.280000 5.098682
154.300000 5.104115
154.320000 4.919229
154.340000 4.721977
154.360000 4.584058
154.380000 4.372341
154.400000 3.999403
154.420000 3.590407
154.440000 3.349661
154.460000 3.275513
154.480000 3.026071
154.500000 2.856561
154.520000 2.873477
154.540000 2.724537
154.560000 2.552870
154.580000 2.284453
154.600000 2.044688
154.620000 1.843907
154.640000 1.562748
154.660000 1.410629
154.680000 1.323584
154.700000 1.131556
154.720000 1.006800
154.740000 0.838199
154.760000 0.575972
154.780000 0.173978
154.800000 -0.292768
154.820000 -0.630446
154.840000 -1.051849
154.860000 -1.585251
154.880000 -1.864772
154.900000 -2.119704
154.920000 -2.460980
154.940000 -2.902128
154.960000 -3.405339
154.980000 -3.733886
155.000000 -4.361783
155.020000 -5.064345
155.040000 -5.499738
155.060000 -5.985851
155.080000 -6.702487
155.100000 -7.514374
155.120000 -7.844784
155.140000 -7.898249
155.160000 -8.430825
155.180000 -9.104107
155.200000 -9.330303
155.220000 -9.374049
155.240000 -9.303640
155.260000 -9.154505
155.280000 -8.779522
155.300000 -8.245756
155.320000 -7.737994
155.340000 -6.871788
155.360000 -6.139034
155.380000 -6.197176
155.400000 -6.370145
155.420000 -6.298350
155.440000 -5.985361
155.460000 -5.897658
155.480000 -5.817727
155.500000 -5.389896
155.520000 -4.938105
155.540000 -4.537917
155.560000 -3.988411
155.580000 -3.399093
155.600000 -3.124165
155.620000 -2.986610
155.640000 -2.725713
155.660000 -2.559381
155.680000 -2.612580
155.700000 -2.448026
155.720000 -2.208989
155.740000 -2.155874
155.760000 -2.075887
155.780000 -2.070720
155.800000 -2.055106
155.820000 -2.159501
155.840000 -2.350437
155.860000 -2.279300
155.880000 -2.259093
155.900000 -2.245958
155.920000 -2.053622
155.940000 -1.820004
155.960000 -1.796366
155.980000 -1.694729
156.000000 -1.602601
156.020000 -1.646768
156.040000 -1.684605
156.060000 -1.624390
156.080000 -1.446044
156.100000 -1.356100
156.120000 -1.206992
156.140000 -0.910625
156.160000 -0.749600
156.180000 -0.690338
156.200000 -0.603307
156.220000 -0.469561
156.240000 -0.437535
156.260000 -0.350238
156.280000 -0.073672
156.300000 0.169287
156.320000 0.397317
156.340000 0.689456
156.360000 0.933352
156.380000 1.047060
156.400000 1.184643
156.420000 1.316036
156.440000 1.459627
156.460000 1.583039
156.480000 1.783861
156.500000 2.131186
156.520000 2.373907
156.540000 2.539833
156.560000 2.809439
156.580000 2.996412
156.600000 3.087924
156.620000 3.195568
156.640000 3.472751
156.660000 3.708497
156.680000 3.987725
156.700000 4.386526
156.720000 4.756859
156.740000 5.128005
156.760000 5.416544
156.780000 5.725038
156.800000 6.024038
156.820000 6.230728
156.840000 6.513316
156.860000 6.935783
156.880000 7.297574
156.900000 7.587164
156.920000 7.893249
156.940000 7.960676
156.960000 7.896358
156.980000 7.756633
157.000000 7.544118
157.020000 7.405932
157.040000 7.171502
157.060000 7.008111
157.080000 7.047796
157.100000 7.064530
157.120000 7.069795
157.140000 7.075915
157.160000 7.111876
157.180000 7.069375
157.200000 6.899276
157.220000 6.743279
157.240000 6.670447
157.260000 6.556712
157.280000 6.430220
157.300000 6.393951
157.320000 6.379346
157.340000 6.304638
157.360000 6.119905
157.380000 5.950562
157.400000 5.854695
157.420000 5.737347
157.440000 5.661911
157.460000 5.654097
157.480000 5.759753
157.500000 5.945479
157.520000 5.986187
157.540000 5.966848
157.560000 5.932330
157.580000 5.762077
157.600000 5.589122
157.620000 5.366748
157.640000 5.156418
157.660000 5.067370
157.680000 5.036269
157.700000 4.929227
157.720000 4.805871
157.740000 4.660628
157.760000 4.494268
157.780000 4.186222
157.800000 3.840927
157.820000 3.530627
157.840000 3.311628
157.860000 3.183903
157.880000 2.924533
157.900000 2.814817
157.920000 2.843524
157.940000 2.617019
157.960000 2.443433
157.980000 2.221648
158.000000 1.923768
158.020000 1.781802
158.040000 1.519785
158.060000 1.321050
158.080000 1.280874
158.100000 1.118057
158.120000 1.007304
158.140000 0.850550
158.160000 0.497428
158.180000 0.198694
158.200000 -0.184634
158.220000 -0.629927
158.240000 -1.024626
158.260000 -1.482270
158.280000 -1.743573
158.300000 -2.072400
158.320000 -2.491549
158.340000 -2.849083
158.360000 -3.310606
158.380000 -3.759764
158.400000 -4.405935
158.420000 -5.053885
158.440000 -5.463749
158.460000 -6.038728
158.480000 -6.791493
158.500000 -7.550769
158.520000 -7.866727
158.540000 -7.960550
158.560000 -8.544210
158.580000 -9.190241
158.600000 -9.376878
158.620000 -9.359458
158.640000 -9.273029
158.660000 -9.121457
158.680000 -8.770896
158.700000 -8.171538
158.720000 -7.630308
158.740000 -6.769493
158.760000 -6.143333
158.780000 -6.210465
158.800000 -6.395996
158.820000 -6.336019
158.840000 -5.998104
158.860000 -5.917739
158.880000 -5.900570
158.900000 -5.442632
158.920000 -4.992256
158.940000 -4.610734
158.960000 -4.048961
158.980000 -3.490255
159.000000 -3.192753
159.020000 -3.027094
159.040000 -2.758355
159.060000 -2.522860
159.080000 -2.566523
159.100000 -2.391355
159.120000 -2.100659
159.140000 -2.040360
159.160000 -1.991125
159.180000 -1.979446
159.200000 -1.938136
159.220000 -2.086362
159.240000 -2.240847
159.260000 -2.175129
159.280000 -2.171432
159.300000 -2.139210
159.320000 -1.988366
159.340000 -1.757773
159.360000 -1.730480
159.380000 -1.701521
159.400000 -1.563476
159.420000 -1.610653
159.440000 -1.663600
159.460000 -1.543507
159.480000 -1.376405
159.500000 -1.283969
159.520000 -1.133068
159.540000 -0.838129
159.560000 -0.668479
159.580000 -0.646339
159.600000 -0.603055
159.620000 -0.406182
159.640000 -0.406084
159.660000 -0.348166
159.680000 -0.068869
159.700000 0.188625
159.720000 0.368387
159.740000 0.630852
159.760000 0.862901
159.780000 0.959385
159.800000 1.058767
159.820000 1.163344
159.840000 1.325853
159.860000 1.461867
159.880000 1.644135
159.900000 2.048833
159.920000 2.287156
159.940000 2.422890
159.960000 2.784205
159.980000 2.972565
160.000000 3.041055
160.020000 3.212400
160.040000 3.512716
160.060000 3.826812
160.080000 4.109624
160.100000 4.476876
160.120000 4.958592
160.140000 5.338195
160.160000 5.597832
160.180000 5.882198
160.200000 6.244549
160.220000 6.426411
160.240000 6.690962
160.260000 7.122084
160.280000 7.466945
160.300000 7.787174
160.320000 8.011046
160.340000 8.045438
160.360000 8.011326
160.380000 7.795338
160.400000 7.563092
160.420000 7.426965
160.440000 7.141465
160.460000 7.027925
160.480000 7.095814
160.500000 7.065230
160.520000 7.085451
160.540000 7.094890
160.560000 7.165242
160.580000 7.131830
160.600000 6.885427
160.620000 6.758949
160.640000 6.775431
160.660000 6.659805
160.680000 6.489412
160.700000 6.413416
160.720000 6.448900
160.740000 6.379458
160.760000 6.090988
160.780000 5.902769
160.800000 5.796665
160.820000 5.698614
160.840000 5.612997
160.860000 5.527941
160.880000 5.696975
160.900000 5.878851
160.920000 5.896523
160.940000 5.910947
160.960000 5.767720
160.980000 5.679863
161.000000 5.546425
161.020000 5.283372
161.040000 5.081976
161.060000 4.992242
161.080000 4.985702
161.100000 4.932560
161.120000 4.720171
161.140000 4.543042
161.160000 4.440117
161.180000 4.154589
161.200000 3.773543
161.220000 3.443428
161.240000 3.235044
161.260000 3.195750
161.280000 2.957987
161.300000 2.814887
161.320000 2.823499
161.340000 2.673845
161.360000 2.543838
161.380000 2.239530
161.400000 1.960443
161.420000 1.845742
161.440000 1.603371
161.460000 1.421860
161.480000 1.321778
161.500000 1.204654
161.520000 1.108002
161.540000 0.846840
161.560000 0.519623
161.580000 0.179285
161.600000 -0.225958
161.620000 -0.631048
161.640000 -1.084673
161.660000 -1.528453
161.680000 -1.812078
161.700000 -2.150413
161.720000 -2.526935
161.740000 -2.990335
161.760000 -3.463705
161.780000 -3.915831
161.800000 -4.586228
161.820000 -5.197924
161.840000 -5.665776
161.860000 -6.294079
161.880000 -7.058957
161.900000 -7.755134
161.920000 -7.988178
161.940000 -8.186886
161.960000 -8.859090
161.980000 -9.382241
162.000000 -9.518634
162.020000 -9.466486
162.040000 -9.351504
162.060000 -9.218654
162.080000 -8.745494
162.100000 -8.203410
162.120000 -7.604640
162.140000 -6.700247
162.160000 -6.299666
162.180000 -6.469793
162.200000 -6.551237
162.220000 -6.401317
162.240000 -6.088776
162.260000 -6.069059
162.280000 -5.896383
162.300000 -5.346555
162.320000 -4.912633
162.340000 -4.492308
162.360000 -3.866792
162.380000 -3.316487
162.400000 -3.093666
162.420000 -2.939951
162.440000 -2.596462
162.460000 -2.474003
162.480000 -2.512204
162.500000 -2.258309
162.520000 -2.042811
162.540000 -1.987484
162.560000 -1.940586
162.580000 -1.922256
162.600000 -1.869211
162.620000 -2.061239
162.640000 -2.160369
162.660000 -2.047964
162.680000 -2.101863
162.700000 -2.078338
162.720000 -1.827775
162.740000 -1.687364
162.760000 -1.713382
162.780000 -1.568951
162.800000 -1.480814
162.820000 -1.585951
162.840000 -1.581904
162.860000 -1.458115
162.880000 -1.310575
162.900000 -1.188186
162.920000 -1.073008
162.940000 -0.743019
162.960000 -0.607354
162.980000 -0.675901
163.000000 -0.489642
163.020000 -0.423854
163.040000 -0.469911
163.060000 -0.300386
163.080000 -0.098066
163.100000 0.110010
163.120000 0.346569
163.140000 0.579837
163.160000 0.805208
163.180000 0.853547
163.200000 0.960435
163.220000 1.150222
163.240000 1.233851
163.260000 1.367513
163.280000 1.655926
163.300000 2.074781
163.320000 2.238004
163.340000 2.464242
163.360000 2.849979
163.380000 3.008049
163.400000 3.122611
163.420000 3.317608
163.440000 3.609606
163.460000 3.937747
163.480000 4.172709
163.500000 4.608564
163.520000 5.066740
163.540000 5.375164
163.560000 5.677595
163.580000 6.034457
163.600000 6.259141
163.620000 6.528887
163.640000 6.854956
163.660000 7.263126
163.680000 7.596462
163.700000 7.866391
163.720000 8.156317
163.740000 8.182405
163.760000 8.030342
163.780000 7.830122
163.800000 7.707845
163.820000 7.480304
163.840000 7.163338
163.860000 7.115488
163.880000 7.159249
163.900000 7.143061
163.920000 7.102255
163.940000 7.111610
163.960000 7.177677
163.980000 7.087818
164.000000 6.834371
164.020000 6.743111
164.040000 6.711715
164.060000 6.514296
164.080000 6.450021
164.100000 6.408459
164.120000 6.355526
164.140000 6.275497
164.160000 6.082600
164.180000 5.911521
164.200000 5.780660
164.220000 5.674794
164.240000 5.646185
164.260000 5.638301
164.280000 5.716090
164.300000 5.852651
164.320000 5.965966
164.340000 5.923060
164.360000 5.779553
164.380000 5.663101
164.400000 5.530784
164.420000 5.279843
164.440000 5.063085
164.460000 5.016720
164.480000 5.020165
164.500000 4.912619
164.520000 4.721053
164.540000 4.597669
164.560000 4.434670
164.580000 4.083732
164.600000 3.725203
164.620000 3.428150
164.640000 3.244356
164.660000 3.081091
164.680000 2.861210
164.700000 2.785200
164.720000 2.752810
164.740000 2.558821
164.760000 2.375335
164.780000 2.142025
164.800000 1.863750
164.820000 1.691075
164.840000 1.481290
164.860000 1.330376
164.880000 1.247854
164.900000 1.104572
164.920000 1.012962
164.940000 0.803709
164.960000 0.472782
164.980000 0.133816
165.000000 -0.222191
165.020000 -0.613739
165.040000 -1.073974
165.060000 -1.457246
165.080000 -1.727861
165.100000 -2.091207
165.120000 -2.521054
165.140000 -2.981709
165.160000 -3.438008
165.180000 -3.930955
165.200000 -4.677432
165.220000 -5.224264
165.240000 -5.727209
165.260000 -6.465690
165.280000 -7.219421
165.300000 -7.829394
165.320000 -8.060184
165.340000 -8.385776
165.360000 -9.078984
165.380000 -9.504547
165.400000 -9.650854
165.420000 -9.644286
165.440000 -9.490277
165.460000 -9.326746
165.480000 -8.841599
165.500000 -8.265669
165.520000 -7.566187
165.540000 -6.711211
165.560000 -6.443173
165.580000 -6.541715
165.600000 -6.522950
165.620000 -6.344001
165.640000 -6.018745
165.660000 -5.949134
165.680000 -5.725094
165.700000 -5.130147
165.720000 -4.708758
165.740000 -4.229759
165.760000 -3.612308
165.780000 -3.163094
165.800000 -2.906805
165.820000 -2.725671
165.840000 -2.442551
165.860000 -2.316647
165.880000 -2.297840
165.900000 -2.061211
165.920000 -1.878173
165.940000 -1.774437
165.960000 -1.788692
165.980000 -1.743615
166.000000 -1.736978
166.020000 -1.945894
166.040000 -2.007060
166.060000 -1.964574
166.080000 -1.977163
166.100000 -1.928348
166.120000 -1.741137
166.140000 -1.638044
166.160000 -1.650395
166.180000 -1.602307
166.200000 -1.573432
166.220000 -1.687000
166.240000 -1.698286
166.260000 -1.591062
166.280000 -1.487858
166.300000 -1.369263
166.320000 -1.201363
166.340000 -0.951669
166.360000 -0.806986
166.380000 -0.850214
166.400000 -0.698362
166.420000 -0.594765
166.440000 -0.574110
166.460000 -0.382642
166.480000 -0.154849
166.500000 0.121031
166.520000 0.360741
166.540000 0.590704
166.560000 0.808330
166.580000 0.877717
166.600000 1.005722
166.620000 1.140056
166.640000 1.267795
166.660000 1.469583
166.680000 1.724753
166.700000 2.073114
166.720000 2.296888
166.740000 2.507709
166.760000 2.842291
166.780000 2.997869
166.800000 3.092139
166.820000 3.390845
166.840000 3.654823
166.860000 3.997513
166.880000 4.369554
166.900000 4.787849
166.920000 5.272856
166.940000 5.617282
166.960000 5.913510
166.980000 6.231232
167.000000 6.545327
167.020000 6.754510
167.040000 7.077315
167.060000 7.480752
167.080000 7.805014
167.100000 8.072731
167.120000 8.234862
167.140000 8.198117
167.160000 8.070210
167.180000 7.853704
167.200000 7.597820
167.220000 7.372870
167.240000 7.186261
167.260000 7.074123
167.280000 7.079136
167.300000 7.033429
167.320000 7.064306
167.340000 7.067093
167.360000 7.028752
167.380000 6.903604
167.400000 6.722806
167.420000 6.653545
167.440000 6.543661
167.460000 6.449964
167.480000 6.396528
167.500000 6.393671
167.520000 6.383126
167.540000 6.257950
167.560000 6.099236
167.580000 5.972268
167.600000 5.828957
167.620000 5.745651
167.640000 5.715096
167.660000 5.726873
167.680000 5.852189
167.700000 6.008942
167.720000 6.028183
167.740000 5.997110
167.760000 5.868013
167.780000 5.703921
167.800000 5.521163
167.820000 5.243378
167.840000 5.081738
167.860000 5.029771
167.880000 4.997731
167.900000 4.853847
167.920000 4.730785
167.940000 4.578835
167.960000 4.353324
167.980000 4.053442
168.000000 3.697365
168.020000 3.467528
168.040000 3.265725
168.060000 3.080559
168.080000 2.954192
168.100000 2.863114
168.120000 2.775005
168.140000 2.607231
168.160000 2.411282
168.180000 2.187760
168.200000 1.948848
168.220000 1.711029
168.240000 1.538242
168.260000 1.415684
168.280000 1.277163
168.300000 1.163652
168.320000 0.984199
168.340000 0.792871
168.360000 0.440588
168.380000 0.018807
168.400000 -0.341836
168.420000 -0.772426
168.440000 -1.194529
168.460000 -1.590684
168.480000 -1.944451
168.500000 -2.297574
168.520000 -2.706725
168.540000 -3.216895
168.560000 -3.719098
168.580000 -4.284820
168.600000 -4.963185
168.620000 -5.533836
168.640000 -6.081046
168.660000 -6.796324
168.680000 -7.560599
168.700000 -7.992995
168.720000 -8.170180
168.740000 -8.618400
168.760000 -9.287831
168.780000 -9.600764
168.800000 -9.649398
168.820000 -9.544834
168.840000 -9.447091
168.860000 -9.172387
168.880000 -8.615697
168.900000 -8.063138
168.920000 -7.342987
168.940000 -6.546630
168.960000 -6.354546
168.980000 -6.454964
169.000000 -6.482788
169.020000 -6.188760
169.040000 -5.884144
169.060000 -5.869189
169.080000 -5.547490
169.100000 -4.966686
169.120000 -4.529599
169.140000 -4.036288
169.160000 -3.453412
169.180000 -3.047875
169.200000 -2.818990
169.220000 -2.675805
169.240000 -2.411660
169.260000 -2.305360
169.280000 -2.323523
169.300000 -2.083827
169.320000 -1.896630
169.340000 -1.880764
169.360000 -1.902875
169.380000 -1.854536
169.400000 -1.891169
169.420000 -2.095716
169.440000 -2.153410
169.460000 -2.050233
169.480000 -2.053356
169.500000 -2.008195
169.520000 -1.773974
169.540000 -1.688932
169.560000 -1.707080
169.580000 -1.644429
169.600000 -1.597630
169.620000 -1.684983
169.640000 -1.687602
169.660000 -1.514478
169.680000 -1.389974
169.700000 -1.301305
169.720000 -1.105258
169.740000 -0.861403
169.760000 -0.782900
169.780000 -0.811999
169.800000 -0.636131
169.820000 -0.529341
169.840000 -0.543485
169.860000 -0.306912
169.880000 -0.054571
169.900000 0.189017
169.920000 0.397920
169.940000 0.614622
169.960000 0.853365
169.980000 0.918649
170.000000 1.015440
170.020000 1.218377
170.040000 1.379626
170.060000 1.534587
170.080000 1.854004
170.100000 2.214394
170.120000 2.389156
170.140000 2.637926
170.160000 2.953730
170.180000 3.081329
170.200000 3.229554
170.220000 3.488449
170.240000 3.821379
170.260000 4.139227
170.280000 4.486482
170.300000 4.920881
170.320000 5.394741
170.340000 5.663689
170.360000 5.925146
170.380000 6.293547
170.400000 6.552553
170.420000 6.758347
170.440000 7.091081
170.460000 7.483749
170.480000 7.769614
170.500000 7.997266
170.520000 8.098595
170.540000 8.029474
170.560000 7.875045
170.580000 7.641161
170.600000 7.457339
170.620000 7.258001
170.640000 7.047754
170.660000 7.051409
170.680000 7.076545
170.700000 7.015308
170.720000 7.035207
170.740000 7.075985
170.760000 7.074193
170.780000 6.937058
170.800000 6.745366
170.820000 6.724500
170.840000 6.709237
170.860000 6.497002
170.880000 6.434939
170.900000 6.446142
170.920000 6.413640
170.940000 6.191518
170.960000 5.942959
170.980000 5.866472
171.000000 5.768127
171.020000 5.635249
171.040000 5.575748
171.060000 5.673576
171.080000 5.855844
171.100000 5.906928
171.120000 5.901061
171.140000 5.934024
171.160000 5.802407
171.180000 5.619495
171.200000 5.454171
171.220000 5.266610
171.240000 5.165646
171.260000 5.134754
171.280000 5.068616
171.300000 5.002591
171.320000 4.859574
171.340000 4.672741
171.360000 4.447581
171.380000 4.101796
171.400000 3.745718
171.420000 3.529506
171.440000 3.349969
171.460000 3.117835
171.480000 2.973293
171.500000 2.901666
171.520000 2.786390
171.540000 2.549789
171.560000 2.284579
171.580000 2.001333
171.600000 1.809949
171.620000 1.546196
171.640000 1.330796
171.660000 1.235797
171.680000 1.132144
171.700000 1.024472
171.720000 0.795279
171.740000 0.554211
171.760000 0.234374
171.780000 -0.135623
171.800000 -0.580888
171.820000 -1.028253
171.840000 -1.412366
171.860000 -1.783889
171.880000 -2.084639
171.900000 -2.520228
171.920000 -2.949011
171.940000 -3.359408
171.960000 -3.858025
171.980000 -4.452790
172.000000 -5.148464
172.020000 -5.589332
172.040000 -6.110845
172.060000 -6.828658
172.080000 -7.622928
172.100000 -8.053126
172.120000 -8.106591
172.140000 -8.620584
172.160000 -9.284652
172.180000 -9.536488
172.200000 -9.563865
172.220000 -9.419910
172.240000 -9.280213
172.260000 -8.975934
172.280000 -8.352588
172.300000 -7.785690
172.320000 -7.064516
172.340000 -6.228557
172.360000 -6.127915
172.380000 -6.367905
172.400000 -6.277863
172.420000 -5.974438
172.440000 -5.739560
172.460000 -5.715600
172.480000 -5.393116
172.500000 -4.767754
172.520000 -4.394018
172.540000 -3.932705
172.560000 -3.314065
172.580000 -2.953072
172.600000 -2.822042
172.620000 -2.633179
172.640000 -2.356725
172.660000 -2.386664
172.680000 -2.347188
172.700000 -2.080746
172.720000 -1.976603
172.740000 -1.947770
172.760000 -1.989584
172.780000 -1.919693
172.800000 -1.969209
172.820000 -2.234559
172.840000 -2.223076
172.860000 -2.101429
172.880000 -2.236898
172.900000 -2.128050
172.920000 -1.873118
172.940000 -1.917341
172.960000 -1.857252
172.980000 -1.805230
173.000000 -1.797220
173.020000 -1.840056
173.040000 -1.833489
173.060000 -1.607460
173.080000 -1.477453
173.100000 -1.366589
173.120000 -1.082992
173.140000 -0.798990
173.160000 -0.771053
173.180000 -0.737165
173.200000 -0.477291
173.220000 -0.469449
173.240000 -0.414626
173.260000 -0.150004
173.280000 0.095447
173.300000 0.350686
173.320000 0.575874
173.340000 0.805152
173.360000 1.040660
173.380000 1.073106
173.400000 1.193563
173.420000 1.458297
173.440000 1.509941
173.460000 1.718339
173.480000 2.124633
173.500000 2.371624
173.520000 2.546638
173.540000 2.836662
173.560000 3.106241
173.580000 3.205441
173.600000 3.311012
173.620000 3.605069
173.640000 3.897599
173.660000 4.175650
173.680000 4.468880
173.700000 4.954573
173.720000 5.342704
173.740000 5.553721
173.760000 5.876149
173.780000 6.220813
173.800000 6.417827
173.820000 6.650647
173.840000 7.041047
173.860000 7.387098
173.880000 7.661270
173.900000 7.887158
173.920000 7.995320
173.940000 7.939180
173.960000 7.721792
173.980000 7.556216
174.000000 7.397740
174.020000 7.154334
174.040000 6.972556
174.060000 7.025993
174.080000 7.031076
174.100000 6.971058
174.120000 7.033779
174.140000 7.060567
174.160000 7.065272
174.180000 6.856342
174.200000 6.722890
174.220000 6.760097
174.240000 6.633101
174.260000 6.455804
174.280000 6.459221
174.300000 6.476851
174.320000 6.395645
174.340000 6.194571
174.360000 5.993917
174.380000 5.920343
174.400000 5.790602
174.420000 5.663647
174.440000 5.693923
174.460000 5.763015
174.480000 5.911073
174.500000 5.990262
174.520000 5.999910
174.540000 5.931798
174.560000 5.784427
174.580000 5.674486
174.600000 5.438739
174.620000 5.194493
174.640000 5.090588
174.660000 5.076612
174.680000 5.023638
174.700000 4.838555
174.720000 4.668680
174.740000 4.529599
174.760000 4.271069
174.780000 3.871329
174.800000 3.530277
174.820000 3.315759
174.840000 3.159341
174.860000 2.958351
174.880000 2.781909
174.900000 2.744100
174.920000 2.620758
174.940000 2.387350
174.960000 2.114760
174.980000 1.859521
175.000000 1.649288
175.020000 1.451967
175.040000 1.304007
175.060000 1.156720
175.080000 1.080864
175.100000 1.015524
175.120000 0.794593
175.140000 0.571141
175.160000 0.204211
175.180000 -0.164217
175.200000 -0.507860
175.220000 -0.976371
175.240000 -1.380732
175.260000 -1.660841
175.280000 -1.992217
175.300000 -2.386692
175.320000 -2.812282
175.340000 -3.260796
175.360000 -3.734726
175.380000 -4.375674
175.400000 -5.034056
175.420000 -5.495761
175.440000 -6.041332
175.460000 -6.764074
175.480000 -7.573203
175.500000 -7.902324
175.520000 -8.011298
175.540000 -8.599747
175.560000 -9.192090
175.580000 -9.467998
175.600000 -9.413063
175.620000 -9.276810
175.640000 -9.164377
175.660000 -8.779593
175.680000 -8.199391
175.700000 -7.632619
175.720000 -6.830576
175.740000 -6.178565
175.760000 -6.144551
175.780000 -6.322534
175.800000 -6.249394
175.820000 -5.943141
175.840000 -5.765004
175.860000 -5.715166
175.880000 -5.304881
175.900000 -4.791728
175.920000 -4.422557
175.940000 -3.909642
175.960000 -3.340195
175.980000 -3.028746
176.000000 -2.901652
176.020000 -2.655724
176.040000 -2.464354
176.060000 -2.477139
176.080000 -2.395542
176.100000 -2.198374
176.120000 -2.113094
176.140000 -2.104328
176.160000 -2.123975
176.180000 -2.111161
176.200000 -2.198472
176.220000 -2.365645
176.240000 -2.320386
176.260000 -2.268391
176.280000 -2.269456
176.300000 -2.094680
176.320000 -1.869897
176.340000 -1.854886
176.360000 -1.760083
176.380000 -1.661499
176.400000 -1.664888
176.420000 -1.708159
176.440000 -1.616787
176.460000 -1.419255
176.480000 -1.320980
176.500000 -1.164016
176.520000 -0.914546
176.540000 -0.716076
176.560000 -0.673114
176.580000 -0.624298
176.600000 -0.443234
176.620000 -0.437871
176.640000 -0.348278
176.660000 -0.078083
176.680000 0.132696
176.700000 0.396295
176.720000 0.639254
176.740000 0.874552
176.760000 1.039204
176.780000 1.115970
176.800000 1.275903
176.820000 1.447318
176.840000 1.562132
176.860000 1.794545
176.880000 2.141661
176.900000 2.375895
176.920000 2.570752
176.940000 2.830178
176.960000 3.052888
176.980000 3.150337
177.000000 3.275457
177.020000 3.559418
177.040000 3.841431
177.060000 4.114931
177.080000 4.491272
177.100000 4.880033
177.120000 5.262675
177.140000 5.521303
177.160000 5.820905
177.180000 6.120703
177.200000 6.337447
177.220000 6.627205
177.240000 7.001319
177.260000 7.327275
177.280000 7.651817
177.300000 7.913736
177.320000 7.944922
177.340000 7.850315
177.360000 7.703938
177.380000 7.555768
177.400000 7.376679
177.420000 7.110391
177.440000 7.044211
177.460000 7.080172
177.480000 7.095996
177.500000 7.078660
177.520000 7.099581
177.540000 7.196904
177.560000 7.146744
177.580000 6.955164
177.600000 6.853247
177.620000 6.829120
177.640000 6.697502
177.660000 6.595305
177.680000 6.526927
177.700000 6.486135
177.720000 6.432614
177.740000 6.188200
177.760000 6.002823
177.780000 5.859723
177.800000 5.733034
177.820000 5.683294
177.840000 5.610827
177.860000 5.681558
177.880000 5.854163
177.900000 5.901579
177.920000 5.878263
177.940000 5.772720
177.960000 5.644379
177.980000 5.501488
178.000000 5.280627
178.020000 5.100166
178.040000 5.019619
178.060000 4.998502
178.080000 4.962653
178.100000 4.825476
178.120000 4.657170
178.140000 4.482968
178.160000 4.198895
178.180000 3.875600
178.200000 3.533259
178.220000 3.286478
178.240000 3.168500
178.260000 2.975617
178.280000 2.840429
178.300000 2.763648
178.320000 2.588564
178.340000 2.425705
178.360000 2.130682
178.380000 1.864226
178.400000 1.660561
178.420000 1.438216
178.440000 1.328569
178.460000 1.156944
178.480000 1.055882
178.500000 0.989898
178.520000 0.712953
178.540000 0.476156
178.560000 0.097323
178.580000 -0.331362
178.600000 -0.631076
178.620000 -1.105902
178.640000 -1.490070
178.660000 -1.735213
178.680000 -2.090409
178.700000 -2.421210
178.720000 -2.842767
178.740000 -3.375497
178.760000 -3.811338
178.780000 -4.458266
178.800000 -5.083740
178.820000 -5.572976
178.840000 -6.166508
178.860000 -6.860655
178.880000 -7.754812
178.900000 -8.002868
178.920000 -8.061640
178.940000 -8.750872
178.960000 -9.344432
178.980000 -9.557942
179.000000 -9.480321
179.020000 -9.324519
179.040000 -9.277706
179.060000 -8.783541
179.080000 -8.145842
179.100000 -7.685972
179.120000 -6.752549
179.140000 -6.140784
179.160000 -6.246650
179.180000 -6.362962
179.200000 -6.189194
179.220000 -5.820961
179.240000 -5.779343
179.260000 -5.712281
179.280000 -5.140762
179.300000 -4.700622
179.320000 -4.434572
179.340000 -3.857031
179.360000 -3.231935
179.380000 -3.104000
179.400000 -2.989607
179.420000 -2.677780
179.440000 -2.520382
179.460000 -2.627074
179.480000 -2.459929
179.500000 -2.172930
179.520000 -2.146828
179.540000 -2.136676
179.560000 -2.070118
179.580000 -2.007537
179.600000 -2.171908
179.620000 -2.271948
179.640000 -2.111147
179.660000 -2.118135
179.680000 -2.145050
179.700000 -1.871970
179.720000 -1.685599
179.740000 -1.717513
179.760000 -1.641237
179.780000 -1.487942
179.800000 -1.551125
179.820000 -1.650577
179.840000 -1.510207
179.860000 -1.296166
179.880000 -1.309567
179.900000 -1.129568
179.920000 -0.809339
179.940000 -0.689092
179.960000 -0.678967
179.980000 -0.571141