90 Deg Fixed Reg 12 13-Apr-2018
Time(s) LoadCell(N)
0.000000 -0.225244
0.020000 -0.285277
0.040000 -0.257690
0.060000 -0.219699
0.080000 -0.262661
0.100000 -0.203637
0.120000 -0.250590
0.140000 -0.255435
0.160000 -0.170813
0.180000 -0.254917
0.200000 -0.218817
0.220000 -0.194339
0.240000 -0.225678
0.260000 -0.186147
0.280000 -0.196145
0.300000 -0.223256
0.320000 -0.186553
0.340000 -0.182492
0.360000 -0.210877
0.380000 -0.194843
0.400000 -0.184774
0.420000 -0.196999
0.440000 -0.176470
0.460000 -0.198610
0.480000 -0.205639
0.500000 -0.166738
0.520000 -0.181007
0.540000 -0.212543
0.560000 -0.197083
0.580000 -0.182758
0.600000 -0.207586
0.620000 -0.203357
0.640000 -0.236601
0.660000 -0.204519
0.680000 -0.211297
0.700000 -0.246767
0.720000 -0.211381
0.740000 -0.228829
0.760000 -0.239822
0.780000 -0.238463
0.800000 -0.233464
0.820000 -0.249764
0.840000 -0.244877
0.860000 -0.246291
0.880000 -0.253783
0.900000 -0.249428
0.920000 -0.271049
0.940000 -0.261023
0.960000 -0.254553
0.980000 -0.296353
1.000000 -0.281580
1.020000 -0.243365
1.040000 -0.279871
1.060000 -0.290542
1.080000 -0.242818
1.100000 -0.246081
1.120000 -0.262913
1.140000 -0.250310
1.160000 -0.256920
1.180000 -0.211899
1.200000 -0.242538
1.220000 -0.246557
1.240000 -0.230313
1.260000 -0.218215
1.280000 -0.216492
1.300000 -0.222486
1.320000 -0.232358
1.340000 -0.208482
1.360000 -0.200248
1.380000 -0.221393
1.400000 -0.214644
1.420000 -0.221225
1.440000 -0.188275
1.460000 -0.204673
1.480000 -0.204617
1.500000 -0.228647
1.520000 -0.178599
1.540000 -0.202797
1.560000 -0.246403
1.580000 -0.184760
1.600000 -0.214056
1.620000 -0.228017
1.640000 -0.190194
1.660000 -0.248028
1.680000 -0.224026
1.700000 -0.213229
1.720000 -0.233968
1.740000 -0.240410
1.760000 -0.223690
1.780000 -0.244975
1.800000 -0.237091
1.820000 -0.247047
1.840000 -0.265350
1.860000 -0.247131
1.880000 -0.258488
1.900000 -0.265868
1.920000 -0.290850
1.940000 -0.245577
1.960000 -0.277295
1.980000 -0.303663
2.000000 -0.280683
2.020000 -0.299280
2.040000 -0.286397
2.060000 -0.336865
2.080000 -0.321265
2.100000 -0.307248
2.120000 -0.357996
2.140000 -0.348544
2.160000 -0.330549
2.180000 -0.363751
2.200000 -0.379841
2.220000 -0.369017
2.240000 -0.386437
2.260000 -0.384504
2.280000 -0.390428
2.300000 -0.400720
2.320000 -0.393383
2.340000 -0.426235
2.360000 -0.428615
2.380000 -0.380611
2.400000 -0.425786
2.420000 -0.456888
2.440000 -0.385443
2.460000 -0.405341
2.480000 -0.441750
2.500000 -0.451721
2.520000 -0.414065
2.540000 -0.406420
2.560000 -0.463904
2.580000 -0.460123
2.600000 -0.424386
2.620000 -0.451875
2.640000 -0.481856
2.660000 -0.467124
2.680000 -0.452855
2.700000 -0.456804
2.720000 -0.504065
2.740000 -0.482066
2.760000 -0.470611
2.780000 -0.504023
2.800000 -0.492120
2.820000 -0.487779
2.840000 -0.482192
2.860000 -0.497105
2.880000 -0.497148
2.900000 -0.464548
2.920000 -0.477403
2.940000 -0.493451
2.960000 -0.461005
2.980000 -0.461313
3.000000 -0.464128
3.020000 -0.447099
3.040000 -0.424834
3.060000 -0.403465
3.080000 -0.420941
3.100000 -0.415858
3.120000 -0.378511
3.140000 -0.367084
3.160000 -0.381634
3.180000 -0.355826
3.200000 -0.330479
3.220000 -0.320929
3.240000 -0.331754
3.260000 -0.302193
3.280000 -0.294771
3.300000 -0.281538
3.320000 -0.240746
3.340000 -0.264874
3.360000 -0.217472
3.380000 -0.198974
3.400000 -0.182030
3.420000 -0.148674
3.440000 -0.132178
3.460000 -0.091722
3.480000 -0.080225
3.500000 -0.045637
3.520000 -0.035765
3.540000 0.009130
3.560000 0.054207
3.580000 0.061069
3.600000 0.091078
3.620000 0.143423
3.640000 0.162579
3.660000 0.205219
3.680000 0.236475
3.700000 0.272968
3.720000 0.315944
3.740000 0.366286
3.760000 0.354985
3.780000 0.425184
3.800000 0.480525
3.820000 0.498086
3.840000 0.550248
3.860000 0.574250
3.880000 0.637503
3.900000 0.679485
3.920000 0.721103
3.940000 0.742192
3.960000 0.820919
3.980000 0.871163
4.000000 0.910891
4.020000 0.964076
4.040000 1.000555
4.060000 1.075248
4.080000 1.100202
4.100000 1.158667
4.120000 1.196448
4.140000 1.215408
4.160000 1.325643
4.180000 1.304105
4.200000 1.340500
4.220000 1.444825
4.240000 1.444657
4.260000 1.500895
4.280000 1.527963
4.300000 1.576135
4.320000 1.653293
4.340000 1.679242
4.360000 1.725117
4.380000 1.814710
4.400000 1.831500
4.420000 1.902833
4.440000 1.964266
4.460000 1.977121
4.480000 2.028276
4.500000 2.056226
4.520000 2.116301
4.540000 2.134589
4.560000 2.119802
4.580000 2.152037
4.600000 2.181864
4.620000 2.146954
4.640000 2.113192
4.660000 2.099329
4.680000 2.124199
4.700000 2.019607
4.720000 2.012900
4.740000 1.985383
4.760000 1.946174
4.780000 1.948176
4.800000 1.849705
4.820000 1.866047
4.840000 1.851231
4.860000 1.770698
4.880000 1.774086
4.900000 1.714418
4.920000 1.653405
4.940000 1.635803
4.960000 1.563840
4.980000 1.519197
5.000000 1.444447
5.020000 1.346088
5.040000 1.274502
5.060000 1.132648
5.080000 0.946081
5.100000 0.807798
5.120000 0.619229
5.140000 0.374338
5.160000 0.157244
5.180000 -0.033650
5.200000 -0.188611
5.220000 -0.399180
5.240000 -0.539424
5.260000 -0.649308
5.280000 -0.743131
5.300000 -0.872634
5.320000 -1.023016
5.340000 -1.132914
5.360000 -1.231344
5.380000 -1.440246
5.400000 -1.590250
5.420000 -1.749763
5.440000 -1.931554
5.460000 -2.078338
5.480000 -2.314364
5.500000 -2.486900
5.520000 -2.659365
5.540000 -2.906511
5.560000 -3.150225
5.580000 -3.396937
5.600000 -3.671893
5.620000 -3.879871
5.640000 -4.136706
5.660000 -4.352260
5.680000 -4.507123
5.700000 -4.666048
5.720000 -4.836343
5.740000 -5.009648
5.760000 -5.216184
5.780000 -5.373414
5.800000 -5.530840
5.820000 -5.639478
5.840000 -5.711091
5.860000 -5.777873
5.880000 -5.790924
5.900000 -5.793123
5.920000 -5.798066
5.940000 -5.814086
5.960000 -5.892322
5.980000 -5.894899
6.000000 -5.910835
6.020000 -5.917851
6.040000 -5.856054
6.060000 -5.742654
6.080000 -5.622057
6.100000 -5.461845
6.120000 -5.311099
6.140000 -5.144333
6.160000 -5.046029
6.180000 -4.962331
6.200000 -4.792218
6.220000 -4.701168
6.240000 -4.572127
6.260000 -4.351966
6.280000 -4.125812
6.300000 -3.854076
6.320000 -3.637388
6.340000 -3.400269
6.360000 -3.156177
6.380000 -2.991567
6.400000 -2.823765
6.420000 -2.615647
6.440000 -2.395220
6.460000 -2.152892
6.480000 -1.871018
6.500000 -1.555900
6.520000 -1.262207
6.540000 -1.023380
6.560000 -0.729799
6.580000 -0.517957
6.600000 -0.338811
6.620000 -0.048620
6.640000 0.149458
6.660000 0.396939
6.680000 0.680508
6.700000 0.979788
6.720000 1.250361
6.740000 1.503429
6.760000 1.718381
6.780000 1.935615
6.800000 2.189930
6.820000 2.352454
6.840000 2.591197
6.860000 2.868590
6.880000 3.155477
6.900000 3.410786
6.920000 3.699353
6.940000 3.951512
6.960000 4.181209
6.980000 4.432808
7.000000 4.626432
7.020000 4.842686
7.040000 5.147343
7.060000 5.386941
7.080000 5.709915
7.100000 5.982966
7.120000 6.238850
7.140000 6.596776
7.160000 6.760489
7.180000 6.956550
7.200000 7.288654
7.220000 7.451597
7.240000 7.760470
7.260000 7.973083
7.280000 8.180010
7.300000 8.619590
7.320000 8.701384
7.340000 8.881677
7.360000 9.216021
7.380000 9.268856
7.400000 9.440817
7.420000 9.589883
7.440000 9.507179
7.460000 9.633266
7.480000 9.599238
7.500000 9.357497
7.520000 9.397379
7.540000 9.263479
7.560000 8.992752
7.580000 8.978258
7.600000 8.854440
7.620000 8.702854
7.640000 8.691259
7.660000 8.623259
7.680000 8.487622
7.700000 8.446957
7.720000 8.356985
7.740000 7.989607
7.760000 7.841101
7.780000 7.583285
7.800000 7.026875
7.820000 6.652887
7.840000 6.202945
7.860000 5.625740
7.880000 5.173726
7.900000 4.521827
7.920000 3.931613
7.940000 3.562596
7.960000 2.987912
7.980000 2.473947
8.000000 2.222950
8.020000 1.845336
8.040000 1.543227
8.060000 1.354532
8.080000 0.965504
8.100000 0.750426
8.120000 0.446553
8.140000 0.054193
8.160000 -0.096847
8.180000 -0.431780
8.200000 -0.722238
8.220000 -0.734939
8.240000 -0.953475
8.260000 -1.144369
8.280000 -1.241328
8.300000 -1.410867
8.320000 -1.547652
8.340000 -1.761778
8.360000 -2.101891
8.380000 -2.202141
8.400000 -2.318299
8.420000 -2.709595
8.440000 -2.879806
8.460000 -2.993416
8.480000 -3.210356
8.500000 -3.545386
8.520000 -3.809952
8.540000 -3.995538
8.560000 -4.350566
8.580000 -4.593748
8.600000 -4.924144
8.620000 -5.120555
8.640000 -5.281412
8.660000 -5.727517
8.680000 -5.897882
8.700000 -6.101883
8.720000 -6.580224
8.740000 -6.930546
8.760000 -7.241197
8.780000 -7.692049
8.800000 -8.117681
8.820000 -8.595168
8.840000 -8.844484
8.860000 -8.850141
8.880000 -9.184094
8.900000 -9.334560
8.920000 -9.326116
8.940000 -9.435888
8.960000 -9.647339
8.980000 -9.881853
9.000000 -9.701854
9.020000 -9.489647
9.040000 -9.522569
9.060000 -9.279149
9.080000 -8.818256
9.100000 -8.453958
9.120000 -8.231963
9.140000 -8.097531
9.160000 -7.962076
9.180000 -7.838174
9.200000 -7.602245
9.220000 -7.257707
9.240000 -7.003462
9.260000 -6.582184
9.280000 -5.965854
9.300000 -5.320159
9.320000 -4.717832
9.340000 -4.303010
9.360000 -3.825104
9.380000 -3.380609
9.400000 -3.193132
9.420000 -2.920206
9.440000 -2.477812
9.460000 -2.099749
9.480000 -1.725817
9.500000 -1.193927
9.520000 -0.701373
9.540000 -0.348824
9.560000 0.014676
9.580000 0.364634
9.600000 0.575860
9.620000 0.796596
9.640000 1.198156
9.660000 1.449614
9.680000 1.778694
9.700000 2.141773
9.720000 2.349023
9.740000 2.698225
9.760000 2.773549
9.780000 2.853662
9.800000 3.126266
9.820000 3.106437
9.840000 3.302008
9.860000 3.525179
9.880000 3.762172
9.900000 4.098183
9.920000 4.132687
9.940000 4.408708
9.960000 4.528423
9.980000 4.493092
10.000000 4.642648
10.020000 4.691996
10.040000 4.798870
10.060000 5.055243
10.080000 5.246039
10.100000 5.405958
10.120000 5.606206
10.140000 5.666896
10.160000 5.806342
10.180000 5.786933
10.200000 5.810529
10.220000 5.938688
10.240000 6.029709
10.260000 6.294023
10.280000 6.339828
10.300000 6.581288
10.320000 6.793453
10.340000 6.686397
10.360000 6.852855
10.380000 6.781942
10.400000 6.850881
10.420000 7.000325
10.440000 6.922914
10.460000 7.207056
10.480000 7.392601
10.500000 7.457633
10.520000 7.567209
10.540000 7.639971
10.560000 7.572964
10.580000 7.527229
10.600000 7.288752
10.620000 7.206174
10.640000 7.179722
10.660000 7.015098
10.680000 7.036944
10.700000 7.005338
10.720000 6.937758
10.740000 6.804558
10.760000 6.803507
10.780000 6.743559
10.800000 6.559667
10.820000 6.532906
10.840000 6.556222
10.860000 6.653265
10.880000 6.458072
10.900000 6.476543
10.920000 6.516971
10.940000 6.291937
10.960000 5.989170
10.980000 5.580383
11.000000 5.420423
11.020000 5.007772
11.040000 4.372705
11.060000 4.090635
11.080000 3.893944
11.100000 3.357923
11.120000 3.013524
11.140000 2.747474
11.160000 2.395766
11.180000 2.189160
11.200000 1.735941
11.220000 1.650829
11.240000 1.443159
11.260000 1.135617
11.280000 1.131066
11.300000 0.907936
11.320000 0.797352
11.340000 0.564882
11.360000 0.466298
11.380000 0.379435
11.400000 0.008822
11.420000 -0.058268
11.440000 -0.182282
11.460000 -0.356554
11.480000 -0.607466
11.500000 -0.862019
11.520000 -0.935523
11.540000 -1.198324
11.560000 -1.638646
11.580000 -1.822510
11.600000 -1.989164
11.620000 -2.439204
11.640000 -2.624553
11.660000 -2.920318
11.680000 -3.200525
11.700000 -3.402846
11.720000 -3.801466
11.740000 -3.979939
11.760000 -4.372383
11.780000 -4.634792
11.800000 -4.921637
11.820000 -5.261065
11.840000 -5.531778
11.860000 -5.975432
11.880000 -6.078091
11.900000 -6.452247
11.920000 -7.011864
11.940000 -7.207379
11.960000 -7.601027
11.980000 -8.084535
12.000000 -8.580591
12.020000 -8.770098
12.040000 -8.804252
12.060000 -9.034104
12.080000 -9.309774
12.100000 -9.216974
12.120000 -9.175594
12.140000 -9.498161
12.160000 -9.529081
12.180000 -9.395475
12.200000 -9.100522
12.220000 -9.117550
12.240000 -8.977390
12.260000 -8.355949
12.280000 -7.980462
12.300000 -7.769614
12.320000 -7.695354
12.340000 -7.413228
12.360000 -7.163968
12.380000 -6.891435
12.400000 -6.553127
12.420000 -6.287483
12.440000 -5.637797
12.460000 -5.096819
12.480000 -4.461542
12.500000 -3.944818
12.520000 -3.509328
12.540000 -3.032485
12.560000 -2.843047
12.580000 -2.530758
12.600000 -2.235945
12.620000 -1.972360
12.640000 -1.549907
12.660000 -1.095217
12.680000 -0.660777
12.700000 -0.303285
12.720000 0.066166
12.740000 0.436611
12.760000 0.480274
12.780000 0.622338
12.800000 0.948756
12.820000 0.878123
12.840000 1.193759
12.860000 1.462806
12.880000 1.375019
12.900000 1.865514
12.920000 1.827229
12.940000 1.592729
12.960000 1.911572
12.980000 1.751443
13.000000 1.532458
13.020000 1.810159
13.040000 1.834763
13.060000 1.761147
13.080000 2.100239
13.100000 2.162064
13.120000 1.947182
13.140000 2.165565
13.160000 2.170228
13.180000 1.817427
13.200000 2.131970
13.220000 2.204144
13.240000 2.071952
13.260000 2.650417
13.280000 2.606713
13.300000 2.665611
13.320000 3.145030
13.340000 2.953436
13.360000 3.062018
13.380000 3.350585
13.400000 3.339383
13.420000 3.708399
13.440000 3.963737
13.460000 4.225152
13.480000 4.712077
13.500000 4.862501
13.520000 5.146083
13.540000 5.440322
13.560000 5.529299
13.580000 5.848800
13.600000 6.139930
13.620000 6.398866
13.640000 6.774745
13.660000 7.252932
13.680000 7.503746
13.700000 7.842347
13.720000 8.222763
13.740000 8.198019
13.760000 8.405843
13.780000 8.509720
13.800000 8.239287
13.820000 8.429942
13.840000 8.524829
13.860000 8.242549
13.880000 8.409484
13.900000 8.347421
13.920000 8.160168
13.940000 8.227132
13.960000 7.991623
13.980000 7.870872
14.000000 7.920612
14.020000 7.832797
14.040000 7.760315
14.060000 7.643331
14.080000 7.538670
14.100000 7.279916
14.120000 6.919567
14.140000 6.394413
14.160000 5.872354
14.180000 5.482024
14.200000 4.890998
14.220000 4.339503
14.240000 3.912260
14.260000 3.552710
14.280000 3.248417
14.300000 2.836074
14.320000 2.391901
14.340000 2.275855
14.360000 2.076951
14.380000 1.671624
14.400000 1.517335
14.420000 1.388308
14.440000 1.325167
14.460000 1.250529
14.480000 1.001325
14.500000 0.950871
14.520000 0.987391
14.540000 0.772202
14.560000 0.554309
14.580000 0.522424
14.600000 0.402135
14.620000 0.270279
14.640000 0.172409
14.660000 -0.056490
14.680000 -0.138073
14.700000 -0.290626
14.720000 -0.607676
14.740000 -0.831226
14.760000 -1.127537
14.780000 -1.399342
14.800000 -1.614980
14.820000 -1.970932
14.840000 -2.248128
14.860000 -2.389310
14.880000 -2.639312
14.900000 -2.931073
14.920000 -3.200105
14.940000 -3.422073
14.960000 -3.657385
14.980000 -3.959592
15.000000 -4.293922
15.020000 -4.516492
15.040000 -4.673750
15.060000 -4.982146
15.080000 -5.315118
15.100000 -5.510171
15.120000 -5.801637
15.140000 -6.137465
15.160000 -6.483699
15.180000 -6.911081
15.200000 -7.191415
15.220000 -7.304310
15.240000 -7.436376
15.260000 -7.482643
15.280000 -7.544818
15.300000 -7.569954
15.320000 -7.527818
15.340000 -7.686308
15.360000 -7.749659
15.380000 -7.461358
15.400000 -7.270702
15.420000 -7.183125
15.440000 -6.862462
15.460000 -6.353565
15.480000 -5.956094
15.500000 -5.898596
15.520000 -6.019613
15.540000 -5.807014
15.560000 -5.430547
15.580000 -5.391464
15.600000 -5.233548
15.620000 -4.819329
15.640000 -4.338075
15.660000 -3.737723
15.680000 -3.208507
15.700000 -2.781755
15.720000 -2.328382
15.740000 -2.104076
15.760000 -1.985705
15.780000 -1.776383
15.800000 -1.658419
15.820000 -1.450315
15.840000 -1.052311
15.860000 -0.726047
15.880000 -0.424204
15.900000 -0.021817
15.920000 0.282490
15.940000 0.390876
15.960000 0.522031
15.980000 0.661267
16.000000 0.839404
16.020000 1.000975
16.040000 1.153205
16.060000 1.477663
16.080000 1.686453
16.100000 1.767799
16.120000 1.865977
16.140000 1.891393
16.160000 1.804558
16.180000 1.794069
16.200000 1.828980
16.220000 1.828448
16.240000 2.010785
16.260000 2.168001
16.280000 2.256474
16.300000 2.359833
16.320000 2.322976
16.340000 2.327948
16.360000 2.292085
16.380000 2.135359
16.400000 2.222250
16.420000 2.389142
16.440000 2.445310
16.460000 2.585273
16.480000 2.800127
16.500000 2.876277
16.520000 2.912294
16.540000 2.893418
16.560000 2.947751
16.580000 3.031589
16.600000 3.145702
16.620000 3.376100
16.640000 3.645118
16.660000 3.949958
16.680000 4.199161
16.700000 4.473837
16.720000 4.596213
16.740000 4.736765
16.760000 4.988489
16.780000 5.175574
16.800000 5.416040
16.820000 5.718765
16.840000 6.152995
16.860000 6.538998
16.880000 6.721378
16.900000 6.951887
16.920000 7.230680
16.940000 7.380992
16.960000 7.428030
16.980000 7.539258
17.000000 7.667207
17.020000 7.661032
17.040000 7.643934
17.060000 7.640503
17.080000 7.592835
17.100000 7.449399
17.120000 7.266739
17.140000 7.019005
17.160000 6.923824
17.180000 6.790162
17.200000 6.690066
17.220000 6.724038
17.240000 6.620287
17.260000 6.622304
17.280000 6.493389
17.300000 6.183200
17.320000 5.855704
17.340000 5.443052
17.360000 4.988237
17.380000 4.518578
17.400000 4.045236
17.420000 3.636548
17.440000 3.205581
17.460000 2.673985
17.480000 2.194706
17.500000 1.801393
17.520000 1.332308
17.540000 0.878795
17.560000 0.531232
17.580000 0.366230
17.600000 0.229249
17.620000 0.057568
17.640000 -0.028133
17.660000 -0.019115
17.680000 -0.063785
17.700000 -0.223382
17.720000 -0.272015
17.740000 -0.307920
17.760000 -0.334695
17.780000 -0.321811
17.800000 -0.282280
17.820000 -0.216716
17.840000 -0.213887
17.860000 -0.233296
17.880000 -0.305609
17.900000 -0.473328
17.920000 -0.623654
17.940000 -0.818721
17.960000 -0.982406
17.980000 -1.166242
18.000000 -1.351003
18.020000 -1.449965
18.040000 -1.588682
18.060000 -1.896896
18.080000 -2.105140
18.100000 -2.381202
18.120000 -2.729144
18.140000 -3.039039
18.160000 -3.446046
18.180000 -3.695054
18.200000 -3.946247
18.220000 -4.328034
18.240000 -4.610356
18.260000 -4.926860
18.280000 -5.263529
18.300000 -5.631160
18.320000 -6.098298
18.340000 -6.489342
18.360000 -6.797808
18.380000 -7.175521
18.400000 -7.478988
18.420000 -7.726133
18.440000 -8.049793
18.460000 -8.392035
18.480000 -8.614073
18.500000 -8.547921
18.520000 -8.490675
18.540000 -8.523163
18.560000 -8.372053
18.580000 -8.075251
18.600000 -7.884357
18.620000 -7.835332
18.640000 -7.737084
18.660000 -7.231828
18.680000 -6.637848
18.700000 -6.120885
18.720000 -5.455697
18.740000 -4.656329
18.760000 -4.072879
18.780000 -3.726982
18.800000 -3.465189
18.820000 -3.049541
18.840000 -2.636204
18.860000 -2.534679
18.880000 -2.288752
18.900000 -1.847940
18.920000 -1.340220
18.940000 -0.716342
18.960000 -0.123846
18.980000 0.415816
19.000000 0.752527
19.020000 0.889200
19.040000 1.030088
19.060000 1.010805
19.080000 0.894591
19.100000 0.997544
19.120000 1.218517
19.140000 1.390128
19.160000 1.553786
19.180000 1.753221
19.200000 1.931960
19.220000 1.797570
19.240000 1.692783
19.260000 1.662550
19.280000 1.603876
19.300000 1.634249
19.320000 1.701115
19.340000 1.911516
19.360000 2.072316
19.380000 2.087048
19.400000 2.166153
19.420000 2.041593
19.440000 1.878258
19.460000 1.847366
19.480000 1.798312
19.500000 1.837830
19.520000 2.010519
19.540000 2.289410
19.560000 2.513058
19.580000 2.581605
19.600000 2.700745
19.620000 2.754868
19.640000 2.704848
19.660000 2.674167
19.680000 2.780004
19.700000 3.053098
19.720000 3.273091
19.740000 3.508025
19.760000 3.876678
19.780000 4.048023
19.800000 4.180761
19.820000 4.274696
19.840000 4.286598
19.860000 4.444010
19.880000 4.602528
19.900000 4.875482
19.920000 5.234822
19.940000 5.496307
19.960000 5.879201
19.980000 6.121235
20.000000 6.145629
20.020000 6.258903
20.040000 6.302187
20.060000 6.423876
20.080000 6.530792
20.100000 6.648476
20.120000 6.985985
20.140000 7.238186
20.160000 7.318621
20.180000 7.391257
20.200000 7.462366
20.220000 7.334515
20.240000 7.038974
20.260000 6.752521
20.280000 6.610065
20.300000 6.546686
20.320000 6.445161
20.340000 6.290200
20.360000 6.215072
20.380000 6.138194
20.400000 5.912081
20.420000 5.647936
20.440000 5.413855
20.460000 5.269425
20.480000 5.245577
20.500000 5.128033
20.520000 4.928863
20.540000 4.955245
20.560000 4.857586
20.580000 4.575530
20.600000 4.043808
20.620000 3.572763
20.640000 3.308519
20.660000 2.810322
20.680000 2.195084
20.700000 1.795638
20.720000 1.707346
20.740000 1.452555
20.760000 1.031824
20.780000 0.693195
20.800000 0.551789
20.820000 0.438669
20.840000 0.003669
20.860000 -0.328617
20.880000 -0.269831
20.900000 -0.210933
20.920000 -0.271819
20.940000 -0.285305
20.960000 -0.220385
20.980000 -0.135300
21.000000 -0.119995
21.020000 -0.321433
21.040000 -0.484250
21.060000 -0.541524
21.080000 -0.589948
21.100000 -0.713318
21.120000 -0.841084
21.140000 -0.955408
21.160000 -0.956654
21.180000 -1.002851
21.200000 -1.441689
21.220000 -1.678163
21.240000 -1.874729
21.260000 -2.160383
21.280000 -2.382589
21.300000 -2.810644
21.320000 -2.986106
21.340000 -2.932921
21.360000 -3.364743
21.380000 -3.748939
21.400000 -3.914711
21.420000 -4.358842
21.440000 -4.727396
21.460000 -5.132962
21.480000 -5.675522
21.500000 -5.823272
21.520000 -6.038350
21.540000 -6.454530
21.560000 -6.708243
21.580000 -6.953526
21.600000 -7.224253
21.620000 -7.656298
21.640000 -7.952288
21.660000 -8.325015
21.680000 -8.696959
21.700000 -8.628286
21.720000 -8.669008
21.740000 -8.465189
21.760000 -8.052230
21.780000 -7.943311
21.800000 -7.613602
21.820000 -7.365253
21.840000 -7.416127
21.860000 -7.283361
21.880000 -7.107086
21.900000 -6.670770
21.920000 -5.633596
21.940000 -4.795453
21.960000 -4.204231
21.980000 -3.532531
22.000000 -3.118424
22.020000 -2.701529
22.040000 -2.461176
22.060000 -2.290391
22.080000 -1.991377
22.100000 -1.888018
22.120000 -1.484833
22.140000 -0.798080
22.160000 -0.209840
22.180000 0.364830
22.200000 0.893485
22.220000 1.250137
22.240000 1.239844
22.260000 1.216752
22.280000 1.276729
22.300000 1.193437
22.320000 1.200775
22.340000 1.479218
22.360000 1.769493
22.380000 1.957615
22.400000 2.057753
22.420000 2.095842
22.440000 2.082987
22.460000 1.778442
22.480000 1.586819
22.500000 1.712556
22.520000 1.609575
22.540000 1.728548
22.560000 1.976281
22.580000 2.091151
22.600000 2.073086
22.620000 1.985019
22.640000 1.894039
22.660000 1.619265
22.680000 1.451295
22.700000 1.481836
22.720000 1.611759
22.740000 1.749273
22.760000 2.000059
22.780000 2.287674
22.800000 2.410175
22.820000 2.376735
22.840000 2.300753
22.860000 2.433351
22.880000 2.305304
22.900000 2.479352
22.920000 2.824745
22.940000 3.043296
22.960000 3.525529
22.980000 3.733746
23.000000 3.969240
23.020000 4.089977
23.040000 4.021361
23.060000 4.248957
23.080000 4.278140
23.100000 4.463909
23.120000 4.868480
23.140000 5.300946
23.160000 5.588323
23.180000 5.820247
23.200000 6.104473
23.220000 6.203715
23.240000 6.154171
23.260000 6.049146
23.280000 6.345611
23.300000 6.526395
23.320000 6.638604
23.340000 6.979320
23.360000 7.286316
23.380000 7.566985
23.400000 7.452816
23.420000 7.415329
23.440000 7.352089
23.460000 6.955962
23.480000 6.732020
23.500000 6.581162
23.520000 6.697026
23.540000 6.604436
23.560000 6.411301
23.580000 6.542191
23.600000 6.402997
23.620000 5.996479
23.640000 5.840258
23.660000 5.753577
23.680000 5.451973
23.700000 5.403787
23.720000 5.354691
23.740000 5.341570
23.760000 5.254063
23.780000 4.919187
23.800000 4.627188
23.820000 4.153454
23.840000 3.578588
23.860000 3.041517
23.880000 2.526473
23.900000 2.202127
23.920000 1.760615
23.940000 1.488670
23.960000 1.520317
23.980000 1.084071
24.000000 0.678267
24.020000 0.697802
24.040000 0.338545
24.060000 -0.080141
24.080000 -0.126969
24.100000 -0.179299
24.120000 -0.091022
24.140000 -0.072383
24.160000 -0.035849
24.180000 0.153757
24.200000 0.157692
24.220000 -0.000140
24.240000 -0.243406
24.260000 -0.206144
24.280000 -0.349048
24.300000 -0.712589
24.320000 -0.547812
24.340000 -0.540110
24.360000 -0.768491
24.380000 -0.837779
24.400000 -0.916044
24.420000 -1.218041
24.440000 -1.602181
24.460000 -1.900817
24.480000 -2.126845
24.500000 -2.386370
24.520000 -2.703756
24.540000 -2.825109
24.560000 -2.934629
24.580000 -3.152480
24.600000 -3.625373
24.620000 -3.976088
24.640000 -4.133430
24.660000 -4.782668
24.680000 -5.261961
24.700000 -5.445909
24.720000 -5.697844
24.740000 -5.993483
24.760000 -6.371322
24.780000 -6.472454
24.800000 -6.792515
24.820000 -7.246000
24.840000 -7.588550
24.860000 -7.990923
24.880000 -8.322551
24.900000 -8.674805
24.920000 -8.778780
24.940000 -8.528106
24.960000 -8.329930
24.980000 -8.282725
25.000000 -7.969022
25.020000 -7.710281
25.040000 -7.717311
25.060000 -7.576759
25.080000 -7.660303
25.100000 -7.306802
25.120000 -6.755070
25.140000 -5.920637
25.160000 -5.131548
25.180000 -4.598411
25.200000 -3.853460
25.220000 -3.461002
25.240000 -3.311404
25.260000 -2.999787
25.280000 -2.637548
25.300000 -2.464873
25.320000 -2.272452
25.340000 -1.671974
25.360000 -1.044413
25.380000 -0.407890
25.400000 0.202713
25.420000 0.653145
25.440000 1.022050
25.460000 0.981286
25.480000 1.039162
25.500000 1.166620
25.520000 1.082194
25.540000 1.160963
25.560000 1.534741
25.580000 1.808829
25.600000 1.830926
25.620000 2.008713
25.640000 2.128050
25.660000 1.941497
25.680000 1.727077
25.700000 1.702627
25.720000 1.770936
25.740000 1.697558
25.760000 1.875233
25.780000 2.142193
25.800000 2.183027
25.820000 2.138860
25.840000 2.092761
25.860000 1.996292
25.880000 1.734793
25.900000 1.699953
25.920000 1.832929
25.940000 1.872390
25.960000 2.049169
25.980000 2.377828
26.000000 2.567419
26.020000 2.568890
26.040000 2.493005
26.060000 2.602974
26.080000 2.584265
26.100000 2.405358
26.120000 2.694514
26.140000 3.024013
26.160000 3.178568
26.180000 3.500968
26.200000 3.724223
26.220000 3.953920
26.240000 3.958598
26.260000 3.910202
26.280000 4.133150
26.300000 4.204567
26.320000 4.399466
26.340000 4.874628
26.360000 5.173782
26.380000 5.451160
26.400000 5.824574
26.420000 6.024640
26.440000 6.066146
26.460000 6.018087
26.480000 6.222984
26.500000 6.459711
26.520000 6.536225
26.540000 6.764284
26.560000 7.184665
26.580000 7.509725
26.600000 7.500805
26.620000 7.536248
26.640000 7.595622
26.660000 7.376497
26.680000 6.980230
26.700000 6.812022
26.720000 6.801953
26.740000 6.734569
26.760000 6.606872
26.780000 6.544193
26.800000 6.505012
26.820000 6.306066
26.840000 6.036655
26.860000 5.905178
26.880000 5.638413
26.900000 5.491308
26.920000 5.508294
26.940000 5.367350
26.960000 5.269271
26.980000 5.150620
27.000000 4.936229
27.020000 4.520805
27.040000 3.959410
27.060000 3.439577
27.080000 3.022080
27.100000 2.500175
27.120000 1.917761
27.140000 1.640802
27.160000 1.530134
27.180000 1.213644
27.200000 0.774918
27.220000 0.588477
27.240000 0.423238
27.260000 0.085280
27.280000 -0.238435
27.300000 -0.456594
27.320000 -0.279087
27.340000 -0.292236
27.360000 -0.385653
27.380000 -0.227569
27.400000 -0.160437
27.420000 -0.064219
27.440000 -0.255351
27.460000 -0.447379
27.480000 -0.424120
27.500000 -0.534411
27.520000 -0.691668
27.540000 -0.688251
27.560000 -0.771109
27.580000 -0.789244
27.600000 -0.797254
27.620000 -1.088118
27.640000 -1.338414
27.660000 -1.596622
27.680000 -1.836892
27.700000 -2.073913
27.720000 -2.459593
27.740000 -2.615563
27.760000 -2.702720
27.780000 -2.895364
27.800000 -3.229806
27.820000 -3.636478
27.840000 -3.789521
27.860000 -4.207787
27.880000 -4.778943
27.900000 -5.155017
27.920000 -5.423266
27.940000 -5.690856
27.960000 -6.053025
27.980000 -6.324144
28.000000 -6.605752
28.020000 -6.877739
28.040000 -7.278530
28.060000 -7.645544
28.080000 -7.997252
28.100000 -8.456297
28.120000 -8.637486
28.140000 -8.702238
28.160000 -8.549895
28.180000 -8.372557
28.200000 -8.133393
28.220000 -7.887858
28.240000 -7.755120
28.260000 -7.649143
28.280000 -7.588886
28.300000 -7.502640
28.320000 -7.287296
28.340000 -6.465368
28.360000 -5.549170
28.380000 -4.919243
28.400000 -4.188267
28.420000 -3.629981
28.440000 -3.269492
28.460000 -3.012026
28.480000 -2.761604
28.500000 -2.427021
28.520000 -2.263966
28.540000 -1.998588
28.560000 -1.374304
28.580000 -0.694749
28.600000 -0.079469
28.620000 0.480974
28.640000 1.052381
28.660000 1.232128
28.680000 1.125240
28.700000 1.298630
28.720000 1.330502
28.740000 1.170443
28.760000 1.341803
28.780000 1.771118
28.800000 1.939998
28.820000 1.970428
28.840000 2.153046
28.860000 2.172790
28.880000 1.969461
28.900000 1.626673
28.920000 1.688428
28.940000 1.694687
28.960000 1.569889
28.980000 1.795554
29.000000 2.004022
29.020000 1.975791
29.040000 1.926597
29.060000 1.841793
29.080000 1.661233
29.100000 1.441773
29.120000 1.332882
29.140000 1.543675
29.160000 1.631168
29.180000 1.746066
29.200000 2.207967
29.220000 2.387882
29.240000 2.357649
29.260000 2.353784
29.280000 2.489799
29.300000 2.482517
29.320000 2.389913
29.340000 2.765889
29.360000 3.171496
29.380000 3.391573
29.400000 3.756221
29.420000 4.073915
29.440000 4.234576
29.460000 4.266196
29.480000 4.324155
29.500000 4.503259
29.520000 4.610286
29.540000 4.841846
29.560000 5.369003
29.580000 5.681586
29.600000 5.953475
29.620000 6.217915
29.640000 6.382888
29.660000 6.422350
29.680000 6.250585
29.700000 6.411763
29.720000 6.635649
29.740000 6.652845
29.760000 6.876773
29.780000 7.211804
29.800000 7.428436
29.820000 7.394085
29.840000 7.329306
29.860000 7.206146
29.880000 6.831556
29.900000 6.452849
29.920000 6.293729
29.940000 6.206362
29.960000 6.083594
29.980000 6.016112
30.000000 5.968837
30.020000 5.902587
30.040000 5.600814
30.060000 5.359186
30.080000 5.274074
30.100000 5.001806
30.120000 4.906289
30.140000 4.895997
30.160000 4.911051
30.180000 4.907928
30.200000 4.758652
30.220000 4.634666
30.240000 4.280213
30.260000 3.805191
30.280000 3.402272
30.300000 2.982535
30.320000 2.577474
30.340000 2.221648
30.360000 2.006948
30.380000 1.970064
30.400000 1.706912
30.420000 1.328345
30.440000 1.308110
30.460000 0.941950
30.480000 0.644421
30.500000 0.359172
30.520000 0.172549
30.540000 0.381256
30.560000 0.137275
30.580000 0.236279
30.600000 0.392682
30.620000 0.297151
30.640000 0.284520
30.660000 -0.021005
30.680000 -0.133214
30.700000 -0.295051
30.720000 -0.597958
30.740000 -0.723484
30.760000 -0.695113
30.780000 -0.856110
30.800000 -0.979634
30.820000 -1.071019
30.840000 -1.343889
30.860000 -1.622206
30.880000 -2.009413
30.900000 -2.268125
30.920000 -2.546526
30.940000 -2.869122
30.960000 -2.966431
30.980000 -3.218548
31.000000 -3.312454
31.020000 -3.635876
31.040000 -3.941163
31.060000 -4.197005
31.080000 -4.736947
31.100000 -5.068770
31.120000 -5.483466
31.140000 -5.711609
31.160000 -5.979493
31.180000 -6.263188
31.200000 -6.407856
31.220000 -6.677477
31.240000 -6.968355
31.260000 -7.329180
31.280000 -7.657195
31.300000 -8.039165
31.320000 -8.334720
31.340000 -8.509748
31.360000 -8.428430
31.380000 -8.187362
31.400000 -7.998947
31.420000 -7.746522
31.440000 -7.656046
31.460000 -7.306158
31.480000 -7.273797
31.500000 -7.521460
31.520000 -7.145610
31.540000 -6.866383
31.560000 -6.050392
31.580000 -5.072355
31.600000 -4.604447
31.620000 -3.895484
31.640000 -3.427590
31.660000 -3.279574
31.680000 -2.943087
31.700000 -2.664364
31.720000 -2.591183
31.740000 -2.299563
31.760000 -1.969980
31.780000 -1.373212
31.800000 -0.609763
31.820000 -0.123776
31.840000 0.546817
31.860000 0.833004
31.880000 0.935971
31.900000 1.059915
31.920000 0.978877
31.940000 1.096296
31.960000 1.106518
31.980000 1.398866
32.000000 1.784883
32.020000 1.897764
32.040000 2.099021
32.060000 2.178630
32.080000 2.078590
32.100000 1.938766
32.120000 1.707654
32.140000 1.714432
32.160000 1.819583
32.180000 1.737762
32.200000 2.092873
32.220000 2.181570
32.240000 2.081390
32.260000 2.233299
32.280000 1.859185
32.300000 1.759873
32.320000 1.627765
32.340000 1.552091
32.360000 1.776201
32.380000 1.807484
32.400000 2.136101
32.420000 2.426769
32.440000 2.447564
32.460000 2.447256
32.480000 2.496884
32.500000 2.434289
32.520000 2.392111
32.540000 2.498243
32.560000 2.783575
32.580000 3.098441
32.600000 3.379082
32.620000 3.648297
32.640000 3.811464
32.660000 3.961972
32.680000 3.879030
32.700000 3.921069
32.720000 4.068300
32.740000 4.141846
32.760000 4.585290
32.780000 4.891180
32.800000 5.162453
32.820000 5.582330
32.840000 5.752667
32.860000 5.824350
32.880000 5.859751
32.900000 5.870323
32.920000 6.111139
32.940000 6.292091
32.960000 6.416090
32.980000 6.871998
33.000000 7.180268
33.020000 7.333507
33.040000 7.438896
33.060000 7.409125
33.080000 7.281414
33.100000 6.987680
33.120000 6.752829
33.140000 6.630748
33.160000 6.651431
33.180000 6.628213
33.200000 6.545916
33.220000 6.531800
33.240000 6.343483
33.260000 6.164898
33.280000 6.001311
33.300000 5.683518
33.320000 5.541776
33.340000 5.564490
33.360000 5.510745
33.380000 5.382656
33.400000 5.292446
33.420000 5.165170
33.440000 4.802300
33.460000 4.216526
33.480000 3.694186
33.500000 3.251078
33.520000 2.726133
33.540000 2.155972
33.560000 1.809599
33.580000 1.688526
33.600000 1.482340
33.620000 1.065026
33.640000 0.797856
33.660000 0.718079
33.680000 0.333490
33.700000 -0.012561
33.720000 -0.234934
33.740000 -0.130609
33.760000 -0.143184
33.780000 -0.205976
33.800000 0.031214
33.820000 0.059612
33.840000 0.135525
33.860000 0.036311
33.880000 -0.176330
33.900000 -0.218032
33.920000 -0.397458
33.940000 -0.539634
33.960000 -0.595087
33.980000 -0.592552
34.000000 -0.748704
34.020000 -0.792941
34.040000 -0.918271
34.060000 -1.270819
34.080000 -1.587184
34.100000 -1.868091
34.120000 -2.135513
34.140000 -2.544860
34.160000 -2.769992
34.180000 -2.890687
34.200000 -3.110246
34.220000 -3.335182
34.240000 -3.786692
34.260000 -4.010060
34.280000 -4.362329
34.300000 -4.924256
34.320000 -5.320285
34.340000 -5.670579
34.360000 -5.843983
34.380000 -6.213714
34.400000 -6.447724
34.420000 -6.679886
34.440000 -6.946972
34.460000 -7.263770
34.480000 -7.662362
34.500000 -8.010948
34.520000 -8.425671
34.540000 -8.592073
34.560000 -8.685182
34.580000 -8.492776
34.600000 -8.255068
34.620000 -8.016983
34.640000 -7.705898
34.660000 -7.601349
34.680000 -7.281596
34.700000 -7.287310
34.720000 -7.328746
34.740000 -6.911782
34.760000 -6.424114
34.780000 -5.528543
34.800000 -4.809848
34.820000 -4.225180
34.840000 -3.497761
34.860000 -3.182601
34.880000 -3.077324
34.900000 -2.664463
34.920000 -2.433421
34.940000 -2.411072
34.960000 -2.013656
34.980000 -1.658475
35.000000 -0.975166
35.020000 -0.313199
35.040000 0.136057
35.060000 0.848212
35.080000 0.948868
35.100000 0.982112
35.120000 1.231596
35.140000 1.120717
35.160000 1.110957
35.180000 1.283240
35.200000 1.631840
35.220000 1.869771
35.240000 1.974027
35.260000 2.215221
35.280000 2.260101
35.300000 2.123526
35.320000 1.917705
35.340000 1.892317
35.360000 1.926905
35.380000 1.872096
35.400000 2.042293
35.420000 2.319840
35.440000 2.236716
35.460000 2.294045
35.480000 2.258799
35.500000 1.879462
35.520000 1.818309
35.540000 1.630258
35.560000 1.641867
35.580000 1.760629
35.600000 1.752213
35.620000 2.167511
35.640000 2.291637
35.660000 2.172986
35.680000 2.243871
35.700000 2.236912
35.720000 2.098334
35.740000 2.053272
35.760000 2.263686
35.780000 2.498509
35.800000 2.768592
35.820000 3.038716
35.840000 3.301084
35.860000 3.486502
35.880000 3.509692
35.900000 3.562386
35.920000 3.717320
35.940000 3.798805
35.960000 4.066788
35.980000 4.590948
36.000000 4.855709
36.020000 5.245059
36.040000 5.679583
36.060000 5.850690
36.080000 5.993035
36.100000 6.045897
36.120000 6.244647
36.140000 6.546868
36.160000 6.671498
36.180000 7.012270
36.200000 7.491003
36.220000 7.753930
36.240000 7.905642
36.260000 8.017977
36.280000 7.940679
36.300000 7.696026
36.320000 7.399897
36.340000 7.203430
36.360000 7.106344
36.380000 6.983521
36.400000 6.909233
36.420000 6.859283
36.440000 6.727623
36.460000 6.424422
36.480000 6.205788
36.500000 5.974620
36.520000 5.616008
36.540000 5.451538
36.560000 5.380541
36.580000 5.184256
36.600000 5.047373
36.620000 4.870427
36.640000 4.562955
36.660000 4.146957
36.680000 3.544224
36.700000 2.994466
36.720000 2.559787
36.740000 1.963986
36.760000 1.489944
36.780000 1.334017
36.800000 1.190048
36.820000 0.941320
36.840000 0.630684
36.860000 0.582092
36.880000 0.427943
36.900000 0.184298
36.920000 -0.084412
36.940000 -0.089159
36.960000 0.059934
36.980000 0.007590
37.000000 0.147946
37.020000 0.274032
37.040000 0.415634
37.060000 0.368219
37.080000 0.246557
37.100000 0.164091
37.120000 -0.035779
37.140000 -0.108736
37.160000 -0.319333
37.180000 -0.379127
37.200000 -0.414612
37.220000 -0.608950
37.240000 -0.687747
37.260000 -0.978849
37.280000 -1.319173
37.300000 -1.659119
37.320000 -1.976197
37.340000 -2.368319
37.360000 -2.680048
37.380000 -2.864319
37.400000 -3.119684
37.420000 -3.294446
37.440000 -3.660032
37.460000 -3.910762
37.480000 -4.306147
37.500000 -4.750810
37.520000 -5.092926
37.540000 -5.614272
37.560000 -5.772328
37.580000 -6.154760
37.600000 -6.372386
37.620000 -6.495111
37.640000 -6.864296
37.660000 -7.008349
37.680000 -7.370980
37.700000 -7.671310
37.720000 -8.007699
37.740000 -8.232649
37.760000 -8.452642
37.780000 -8.376618
37.800000 -8.090403
37.820000 -7.823751
37.840000 -7.545742
37.860000 -7.486382
37.880000 -7.063298
37.900000 -6.918839
37.920000 -7.037980
37.940000 -6.972052
37.960000 -6.714544
37.980000 -5.768267
38.000000 -5.179047
38.020000 -4.606589
38.040000 -3.786426
38.060000 -3.547655
38.080000 -3.230479
38.100000 -3.109265
38.120000 -2.873547
38.140000 -2.626443
38.160000 -2.628908
38.180000 -2.336196
38.200000 -1.705358
38.220000 -1.197050
38.240000 -0.662457
38.260000 0.116186
38.280000 0.363583
38.300000 0.546327
38.320000 0.739322
38.340000 0.774582
38.360000 0.916940
38.380000 0.797926
38.400000 1.299848
38.420000 1.731908
38.440000 1.822062
38.460000 2.184679
38.480000 2.354694
38.500000 2.476565
38.520000 2.232879
38.540000 2.147556
38.560000 2.296020
38.580000 2.175031
38.600000 2.299297
38.620000 2.568763
38.640000 2.619302
38.660000 2.681645
38.680000 2.593507
38.700000 2.400415
38.720000 2.193445
38.740000 1.790414
38.760000 1.887038
38.780000 1.835603
38.800000 1.656836
38.820000 2.061436
38.840000 2.137124
38.860000 2.132209
38.880000 2.053062
38.900000 1.965891
38.920000 2.024075
38.940000 1.755994
38.960000 1.790778
38.980000 2.097550
39.000000 2.318089
39.020000 2.586940
39.040000 2.893684
39.060000 3.153222
39.080000 3.269338
39.100000 3.306503
39.120000 3.477610
39.140000 3.586976
39.160000 3.741980
39.180000 4.265033
39.200000 4.646989
39.220000 5.025346
39.240000 5.425184
39.260000 5.784609
39.280000 6.064438
39.300000 6.013073
39.320000 6.184167
39.340000 6.505418
39.360000 6.715048
39.380000 6.880638
39.400000 7.297504
39.420000 7.761044
39.440000 7.922404
39.460000 8.063474
39.480000 8.053770
39.500000 7.936716
39.520000 7.695648
39.540000 7.326295
39.560000 7.228832
39.580000 7.089890
39.600000 6.970582
39.620000 6.939270
39.640000 6.839804
39.660000 6.553701
39.680000 6.382272
39.700000 6.178887
39.720000 5.838199
39.740000 5.593715
39.760000 5.458498
39.780000 5.462867
39.800000 5.294855
39.820000 5.062385
39.840000 4.942866
39.860000 4.613409
39.880000 4.074531
39.900000 3.484584
39.920000 3.017529
39.940000 2.520858
39.960000 1.966129
39.980000 1.546770
40.000000 1.360805
40.020000 1.227409
40.040000 0.856614
40.060000 0.584403
40.080000 0.499696
40.100000 0.244863
40.120000 -0.056364
40.140000 -0.199380
40.160000 -0.178403
40.180000 -0.098976
40.200000 -0.141630
40.220000 0.009494
40.240000 0.212389
40.260000 0.159722
40.280000 0.204855
40.300000 0.030961
40.320000 0.023008
40.340000 -0.127711
40.360000 -0.368583
40.380000 -0.235313
40.400000 -0.386437
40.420000 -0.465052
40.440000 -0.590326
40.460000 -0.730332
40.480000 -0.878921
40.500000 -1.384527
40.520000 -1.710301
40.540000 -1.873006
40.560000 -2.224365
40.580000 -2.653092
40.600000 -2.734633
40.620000 -2.926115
40.640000 -3.201926
40.660000 -3.501444
40.680000 -3.937495
40.700000 -4.168746
40.720000 -4.721487
40.740000 -5.155969
40.760000 -5.489348
40.780000 -5.798374
40.800000 -6.011085
40.820000 -6.430486
40.840000 -6.447514
40.860000 -6.836737
40.880000 -7.221144
40.900000 -7.331560
40.920000 -7.903948
40.940000 -8.161274
40.960000 -8.448357
40.980000 -8.640847
41.000000 -8.530081
41.020000 -8.314737
41.040000 -8.116883
41.060000 -7.881935
41.080000 -7.668944
41.100000 -7.520424
41.120000 -7.332975
41.140000 -7.477433
41.160000 -7.366653
41.180000 -6.808157
41.200000 -6.118981
41.220000 -5.379477
41.240000 -4.781743
41.260000 -4.032661
41.280000 -3.592956
41.300000 -3.516133
41.320000 -3.090347
41.340000 -2.869584
41.360000 -2.702818
41.380000 -2.462786
41.400000 -2.116763
41.420000 -1.460313
41.440000 -0.857734
41.460000 -0.227429
41.480000 0.446329
41.500000 0.884579
41.520000 0.898316
41.540000 1.198240
41.560000 1.318207
41.580000 1.201671
41.600000 1.475185
41.620000 1.689436
41.640000 2.138930
41.660000 2.248605
41.680000 2.435157
41.700000 2.785858
41.720000 2.513044
41.740000 2.455742
41.760000 2.355730
41.780000 2.306887
41.800000 2.298625
41.820000 2.291161
41.840000 2.526809
41.860000 2.499503
41.880000 2.426881
41.900000 2.391103
41.920000 2.114942
41.940000 1.756148
41.960000 1.606746
41.980000 1.449951
42.000000 1.489720
42.020000 1.404314
42.040000 1.590502
42.060000 1.921962
42.080000 1.627219
42.100000 1.756064
42.120000 1.748810
42.140000 1.534587
42.160000 1.648462
42.180000 1.582618
42.200000 1.972192
42.220000 2.283991
42.240000 2.451205
42.260000 2.984229
42.280000 3.171412
42.300000 3.283845
42.320000 3.514411
42.340000 3.694676
42.360000 3.818172
42.380000 4.149968
42.400000 4.656889
42.420000 5.104339
42.440000 5.473076
42.460000 5.932330
42.480000 6.331986
42.500000 6.474022
42.520000 6.583375
42.540000 6.697306
42.560000 7.035697
42.580000 7.213022
42.600000 7.340523
42.620000 7.879428
42.640000 8.129528
42.660000 8.241569
42.680000 8.405997
42.700000 8.275569
42.720000 8.048001
42.740000 7.699387
42.760000 7.377996
42.780000 7.204844
42.800000 7.011093
42.820000 6.821376
42.840000 6.816082
42.860000 6.616086
42.880000 6.303461
42.900000 6.116502
42.920000 5.849836
42.940000 5.522494
42.960000 5.241432
42.980000 5.163965
43.000000 5.012225
43.020000 4.884808
43.040000 4.701896
43.060000 4.464105
43.080000 4.175230
43.100000 3.580325
43.120000 3.083359
43.140000 2.672136
43.160000 2.046284
43.180000 1.625105
43.200000 1.354616
43.220000 1.182108
43.240000 1.025859
43.260000 0.732264
43.280000 0.611653
43.300000 0.580468
43.320000 0.296283
43.340000 0.076164
43.360000 0.001288
43.380000 0.081612
43.400000 0.109786
43.420000 0.211983
43.440000 0.378791
43.460000 0.478635
43.480000 0.552839
43.500000 0.514036
43.520000 0.362883
43.540000 0.218971
43.560000 0.072369
43.580000 -0.086233
43.600000 -0.076304
43.620000 -0.341318
43.640000 -0.428279
43.660000 -0.379995
43.680000 -0.731970
43.700000 -1.052255
43.720000 -1.436017
43.740000 -1.707837
43.760000 -2.050905
43.780000 -2.527902
43.800000 -2.767401
43.820000 -2.945636
43.840000 -3.148377
43.860000 -3.518150
43.880000 -3.809238
43.900000 -4.117480
43.920000 -4.567702
43.940000 -5.001960
43.960000 -5.481086
43.980000 -5.782816
44.000000 -6.108702
44.020000 -6.349616
44.040000 -6.567579
44.060000 -6.868539
44.080000 -7.057963
44.100000 -7.424725
44.120000 -7.699975
44.140000 -8.110484
44.160000 -8.467205
44.180000 -8.618176
44.200000 -8.670212
44.220000 -8.489653
44.240000 -8.336680
44.260000 -8.060604
44.280000 -7.773381
44.300000 -7.581563
44.320000 -7.447690
44.340000 -7.410679
44.360000 -7.375783
44.380000 -7.247610
44.400000 -6.584873
44.420000 -5.862047
44.440000 -5.189998
44.460000 -4.466892
44.480000 -4.047309
44.500000 -3.498167
44.520000 -3.414301
44.540000 -3.237634
44.560000 -2.723403
44.580000 -2.720448
44.600000 -2.494280
44.620000 -1.914302
44.640000 -1.208617
44.660000 -0.609413
44.680000 0.023330
44.700000 0.613390
44.720000 0.932750
44.740000 1.071748
44.760000 1.132088
44.780000 1.343287
44.800000 1.325601
44.820000 1.535609
44.840000 1.967473
44.860000 2.284033
44.880000 2.486172
44.900000 2.635420
44.920000 2.883251
44.940000 2.664645
44.960000 2.477952
44.980000 2.511980
45.000000 2.435129
45.020000 2.465013
45.040000 2.488300
45.060000 2.678970
45.080000 2.724481
45.100000 2.507429
45.120000 2.376091
45.140000 2.195672
45.160000 1.759915
45.180000 1.605878
45.200000 1.608231
45.220000 1.439630
45.240000 1.633633
45.260000 1.721574
45.280000 1.794881
45.300000 1.779212
45.320000 1.580686
45.340000 1.642217
45.360000 1.464290
45.380000 1.408361
45.400000 1.609421
45.420000 1.864086
45.440000 2.158423
45.460000 2.451877
45.480000 2.804426
45.500000 3.014449
45.520000 3.125677
45.540000 3.252730
45.560000 3.467374
45.580000 3.726632
45.600000 4.078859
45.620000 4.594140
45.640000 5.062581
45.660000 5.576687
45.680000 5.937175
45.700000 6.286671
45.720000 6.465214
45.740000 6.533397
45.760000 6.896252
45.780000 7.045570
45.800000 7.300529
45.820000 7.690383
45.840000 8.049345
45.860000 8.335532
45.880000 8.465427
45.900000 8.461842
45.920000 8.365765
45.940000 8.076624
45.960000 7.697342
45.980000 7.467967
46.000000 7.299549
46.020000 7.151995
46.040000 6.994191
46.060000 6.868581
46.080000 6.691032
46.100000 6.431676
46.120000 6.115592
46.140000 5.763688
46.160000 5.517284
46.180000 5.281258
46.200000 5.144263
46.220000 4.974486
46.240000 4.797805
46.260000 4.658388
46.280000 4.317196
46.300000 3.815973
46.320000 3.313939
46.340000 2.848523
46.360000 2.278544
46.380000 1.762114
46.400000 1.405252
46.420000 1.199458
46.440000 1.085569
46.460000 0.890866
46.480000 0.622296
46.500000 0.576505
46.520000 0.546607
46.540000 0.160885
46.560000 0.094817
46.580000 0.070647
46.600000 0.152749
46.620000 0.307570
46.640000 0.290668
46.660000 0.478677
46.680000 0.703627
46.700000 0.590648
46.720000 0.478103
46.740000 0.374968
46.760000 0.202531
46.780000 0.143296
46.800000 -0.090056
46.820000 -0.224054
46.840000 -0.233702
46.860000 -0.372896
46.880000 -0.548806
46.900000 -0.893261
46.920000 -1.209443
46.940000 -1.503401
46.960000 -1.916011
46.980000 -2.275519
47.000000 -2.670960
47.020000 -2.838370
47.040000 -2.982871
47.060000 -3.360864
47.080000 -3.607253
47.100000 -3.901184
47.120000 -4.291920
47.140000 -4.670641
47.160000 -5.184452
47.180000 -5.584542
47.200000 -5.815262
47.220000 -6.119219
47.240000 -6.444713
47.260000 -6.601299
47.280000 -6.887108
47.300000 -7.104916
47.320000 -7.418955
47.340000 -7.845764
47.360000 -8.118200
47.380000 -8.413573
47.400000 -8.637094
47.420000 -8.757397
47.440000 -8.458985
47.460000 -8.206323
47.480000 -7.962132
47.500000 -7.755764
47.520000 -7.655066
47.540000 -7.281568
47.560000 -7.322094
47.580000 -7.466357
47.600000 -7.024901
47.620000 -6.387411
47.640000 -5.516402
47.660000 -4.792792
47.680000 -4.323833
47.700000 -3.645258
47.720000 -3.349983
47.740000 -3.265977
47.760000 -2.834897
47.780000 -2.680300
47.800000 -2.537522
47.820000 -2.182495
47.840000 -1.720622
47.860000 -0.927345
47.880000 -0.347521
47.900000 0.217024
47.920000 0.922444
47.940000 0.983176
47.960000 1.082936
47.980000 1.361519
48.000000 1.282498
48.020000 1.348454
48.040000 1.587422
48.060000 1.996250
48.080000 2.284831
48.100000 2.354400
48.120000 2.644760
48.140000 2.714777
48.160000 2.452914
48.180000 2.322248
48.200000 2.305038
48.220000 2.275001
48.240000 2.260577
48.260000 2.400051
48.280000 2.614106
48.300000 2.476019
48.320000 2.421224
48.340000 2.311998
48.360000 1.879980
48.380000 1.648392
48.400000 1.455580
48.420000 1.459123
48.440000 1.385339
48.460000 1.412352
48.480000 1.768975
48.500000 1.758599
48.520000 1.570576
48.540000 1.613538
48.560000 1.579958
48.580000 1.399062
48.600000 1.432138
48.620000 1.657817
48.640000 1.971338
48.660000 2.266123
48.680000 2.593914
48.700000 3.001019
48.720000 3.128660
48.740000 3.249243
48.760000 3.503278
48.780000 3.643732
48.800000 3.891970
48.820000 4.350706
48.840000 4.935262
48.860000 5.355699
48.880000 5.770507
48.900000 6.301305
48.920000 6.601537
48.940000 6.661779
48.960000 6.757646
48.980000 7.091165
49.000000 7.349975
49.020000 7.447928
49.040000 7.815265
49.060000 8.267825
49.080000 8.462990
49.100000 8.510924
49.120000 8.469124
49.140000 8.271424
49.160000 7.960634
49.180000 7.544426
49.200000 7.278110
49.220000 7.147444
49.240000 6.909317
49.260000 6.880176
49.280000 6.731866
49.300000 6.468057
49.320000 6.212859
49.340000 5.960519
49.360000 5.673030
49.380000 5.328169
49.400000 5.105179
49.420000 5.072005
49.440000 4.943902
49.460000 4.692668
49.480000 4.529151
49.500000 4.265747
49.520000 3.749303
49.540000 3.213408
49.560000 2.677052
49.580000 2.241309
49.600000 1.700149
49.620000 1.292749
49.640000 1.202749
49.660000 1.060405
49.680000 0.874916
49.700000 0.611121
49.720000 0.578787
49.740000 0.440042
49.760000 0.141210
49.780000 -0.034084
49.800000 -0.018821
49.820000 0.142708
49.840000 0.125358
49.860000 0.295191
49.880000 0.476030
49.900000 0.539452
49.920000 0.543191
49.940000 0.386955
49.960000 0.270755
49.980000 0.099844
50.000000 -0.045735
50.020000 -0.104745
50.040000 -0.206998
50.060000 -0.344763
50.080000 -0.429665
50.100000 -0.536959
50.120000 -0.853673
50.140000 -1.246272
50.160000 -1.608595
50.180000 -1.874603
50.200000 -2.217237
50.220000 -2.674251
50.240000 -2.778618
50.260000 -2.983025
50.280000 -3.254494
50.300000 -3.518892
50.320000 -3.955195
50.340000 -4.253522
50.360000 -4.691296
50.380000 -5.166948
50.400000 -5.528501
50.420000 -5.882828
50.440000 -6.140952
50.460000 -6.292287
50.480000 -6.560087
50.500000 -6.947196
50.520000 -7.136816
50.540000 -7.459509
50.560000 -7.885127
50.580000 -8.237676
50.600000 -8.677718
50.620000 -8.749709
50.640000 -8.682129
50.660000 -8.550665
50.680000 -8.321626
50.700000 -8.159705
50.720000 -7.878602
50.740000 -7.675609
50.760000 -7.641161
50.780000 -7.675259
50.800000 -7.535561
50.820000 -7.048566
50.840000 -6.348048
50.860000 -5.547392
50.880000 -4.822185
50.900000 -4.069574
50.920000 -3.677410
50.940000 -3.429186
50.960000 -3.078108
50.980000 -2.751773
51.000000 -2.565557
51.020000 -2.389184
51.040000 -1.905004
51.060000 -1.311135
51.080000 -0.618977
51.100000 0.072537
51.120000 0.639254
51.140000 1.131080
51.160000 1.310393
51.180000 1.337265
51.200000 1.532977
51.220000 1.548380
51.240000 1.536295
51.260000 1.955948
51.280000 2.207225
51.300000 2.423269
51.320000 2.646300
51.340000 2.715309
51.360000 2.699331
51.380000 2.438882
51.400000 2.350759
51.420000 2.269302
51.440000 2.198178
51.460000 2.238620
51.480000 2.404896
51.500000 2.443951
51.520000 2.313356
51.540000 2.296062
51.560000 1.974587
51.580000 1.661471
51.600000 1.415152
51.620000 1.314426
51.640000 1.268873
51.660000 1.263328
51.680000 1.444055
51.700000 1.558771
51.720000 1.637666
51.740000 1.450679
51.760000 1.476109
51.780000 1.442305
51.800000 1.240852
51.820000 1.492969
51.840000 1.687966
51.860000 2.026917
51.880000 2.367857
51.900000 2.748497
51.920000 3.062270
51.940000 3.200161
51.960000 3.434620
51.980000 3.597129
52.000000 3.840759
52.020000 4.177750
52.040000 4.717832
52.060000 5.219125
52.080000 5.643469
52.100000 6.184223
52.120000 6.558967
52.140000 6.754636
52.160000 6.814948
52.180000 7.112870
52.200000 7.314294
52.220000 7.412248
52.240000 7.710435
52.260000 8.095472
52.280000 8.480383
52.300000 8.404358
52.320000 8.506499
52.340000 8.600910
52.360000 8.105442
52.380000 7.702496
52.400000 7.354022
52.420000 7.289760
52.440000 6.976351
52.460000 6.658937
52.480000 6.725047
52.500000 6.654120
52.520000 6.269055
52.540000 5.846629
52.560000 5.829293
52.580000 5.504625
52.600000 5.086415
52.620000 4.951170
52.640000 4.943524
52.660000 4.863733
52.680000 4.449164
52.700000 4.409632
52.720000 4.140557
52.740000 3.541843
52.760000 2.961166
52.780000 2.577474
52.800000 2.275323
52.820000 1.478643
52.840000 1.268901
52.860000 1.417141
52.880000 1.159507
52.900000 0.696009
52.920000 0.670201
52.940000 0.894717
52.960000 0.350378
52.980000 0.003935
53.000000 0.060130
53.020000 0.342620
53.040000 0.160563
53.060000 -0.044797
53.080000 0.535027
53.100000 0.685717
53.120000 0.401154
53.140000 0.295891
53.160000 0.504667
53.180000 0.296549
53.200000 -0.184592
53.220000 -0.100516
53.240000 -0.065662
53.260000 -0.251458
53.280000 -0.547644
53.300000 -0.384854
53.320000 -0.489502
53.340000 -1.150685
53.360000 -1.391038
53.380000 -1.515962
53.400000 -1.861565
53.420000 -2.634705
53.440000 -2.641077
53.460000 -2.519332
53.480000 -3.120902
53.500000 -3.444184
53.520000 -3.578784
53.540000 -3.731645
53.560000 -4.477926
53.580000 -5.019549
53.600000 -5.152987
53.620000 -5.541090
53.640000 -5.966120
53.660000 -6.409649
53.680000 -6.291572
53.700000 -6.609365
53.720000 -7.160243
53.740000 -7.355506
53.760000 -7.634299
53.780000 -7.927152
53.800000 -8.750844
53.820000 -8.788681
53.840000 -8.552276
53.860000 -9.095130
53.880000 -8.702448
53.900000 -8.049401
53.920000 -8.421806
53.940000 -8.072296
53.960000 -7.467925
53.980000 -7.993275
54.000000 -7.589923
54.020000 -7.343715
54.040000 -7.231688
54.060000 -5.786569
54.080000 -5.247663
54.100000 -4.843512
54.120000 -3.705991
54.140000 -3.272881
54.160000 -3.517422
54.180000 -2.878756
54.200000 -2.256811
54.220000 -2.685594
54.240000 -2.133763
54.260000 -1.418751
54.280000 -1.204696
54.300000 -0.300778
54.320000 0.448598
54.340000 0.700981
54.360000 1.328107
54.380000 1.279306
54.400000 1.279320
54.420000 1.696312
54.440000 1.269853
54.460000 1.563392
54.480000 2.047922
54.500000 2.048973
54.520000 2.431797
54.540000 2.433295
54.560000 2.619904
54.580000 2.605452
54.600000 2.095170
54.620000 2.217853
54.640000 2.346964
54.660000 1.955080
54.680000 2.212476
54.700000 2.649003
54.720000 2.250677
54.740000 2.363054
54.760000 2.462142
54.780000 1.863540
54.800000 1.668165
54.820000 1.688624
54.840000 1.366504
54.860000 1.383014
54.880000 1.626673
54.900000 1.537542
54.920000 1.836485
54.940000 1.775655
54.960000 1.470157
54.980000 1.716883
55.000000 1.459487
55.020000 1.260415
55.040000 1.608077
55.060000 1.819135
55.080000 2.019790
55.100000 2.407291
55.120000 2.758761
55.140000 2.992729
55.160000 3.121868
55.180000 3.247885
55.200000 3.620990
55.220000 3.669022
55.240000 4.062839
55.260000 4.825224
55.280000 5.111061
55.300000 5.573452
55.320000 6.248092
55.340000 6.493263
55.360000 6.587296
55.380000 6.880652
55.400000 6.997230
55.420000 7.236870
55.440000 7.589600
55.460000 7.678102
55.480000 8.143742
55.500000 8.604578
55.520000 8.466169
55.540000 8.489149
55.560000 8.556575
55.580000 7.993065
55.600000 7.651453
55.620000 7.506182
55.640000 7.072568
55.660000 6.993015
55.680000 6.919973
55.700000 6.698216
55.720000 6.589508
55.740000 6.287834
55.760000 5.990024
55.780000 5.747346
55.800000 5.375108
55.820000 5.129797
55.840000 5.010811
55.860000 4.841860
55.880000 4.734832
55.900000 4.526406
55.920000 4.241130
55.940000 3.898999
55.960000 3.382471
55.980000 2.826523
56.000000 2.356739
56.020000 1.895188
56.040000 1.433455
56.060000 1.312704
56.080000 1.211543
56.100000 0.931420
56.120000 0.852721
56.140000 0.785883
56.160000 0.535363
56.180000 0.414164
56.200000 0.177703
56.220000 0.067510
56.240000 0.265938
56.260000 0.188569
56.280000 0.230635
56.300000 0.525714
56.320000 0.523292
56.340000 0.473272
56.360000 0.442030
56.380000 0.241628
56.400000 0.094733
56.420000 -0.073476
56.440000 -0.218074
56.460000 -0.299280
56.480000 -0.397290
56.500000 -0.487919
56.520000 -0.596305
56.540000 -0.832696
56.560000 -1.172712
56.580000 -1.504368
56.600000 -1.763570
56.620000 -2.127097
56.640000 -2.487922
56.660000 -2.660794
56.680000 -2.793434
56.700000 -3.013903
56.720000 -3.328250
56.740000 -3.642122
56.760000 -3.934540
56.780000 -4.384916
56.800000 -4.899960
56.820000 -5.275502
56.840000 -5.614678
56.860000 -5.937609
56.880000 -6.165934
56.900000 -6.429674
56.920000 -6.718255
56.940000 -6.992665
56.960000 -7.405050
56.980000 -7.743175
57.000000 -8.097068
57.020000 -8.578504
57.040000 -8.821197
57.060000 -8.898971
57.080000 -8.794380
57.100000 -8.546198
57.120000 -8.373033
57.140000 -8.166917
57.160000 -7.942177
57.180000 -7.799021
57.200000 -7.761366
57.220000 -7.713110
57.240000 -7.362410
57.260000 -6.650549
57.280000 -5.849472
57.300000 -5.022125
57.320000 -4.293502
57.340000 -3.714911
57.360000 -3.280709
57.380000 -3.062256
57.400000 -2.726455
57.420000 -2.405862
57.440000 -2.273769
57.460000 -1.979488
57.480000 -1.435835
57.500000 -0.759599
57.520000 -0.114085
57.540000 0.473790
57.560000 0.998552
57.580000 1.272892
57.600000 1.296852
57.620000 1.387005
57.640000 1.443747
57.660000 1.420978
57.680000 1.611493
57.700000 1.944928
57.720000 2.191079
57.740000 2.359063
57.760000 2.516615
57.780000 2.582361
57.800000 2.439835
57.820000 2.223511
57.840000 2.150315
57.860000 2.183839
57.880000 2.114200
57.900000 2.242723
57.920000 2.413018
57.940000 2.373459
57.960000 2.291259
57.980000 2.115615
58.000000 1.866047
58.020000 1.553575
58.040000 1.386067
58.060000 1.329550
58.080000 1.312437
58.100000 1.422294
58.120000 1.557692
58.140000 1.674326
58.160000 1.616185
58.180000 1.505558
58.200000 1.532977
58.220000 1.419297
58.240000 1.390772
58.260000 1.623326
58.280000 1.945992
58.300000 2.248801
58.320000 2.622242
58.340000 2.967775
58.360000 3.235212
58.380000 3.356887
58.400000 3.538287
58.420000 3.814279
58.440000 4.044704
58.460000 4.478389
58.480000 5.009452
58.500000 5.504345
58.520000 5.995065
58.540000 6.374304
58.560000 6.691845
58.580000 6.844565
58.600000 6.924020
58.620000 7.138132
58.640000 7.333143
58.660000 7.529414
58.680000 7.800309
58.700000 8.116365
58.720000 8.370904
58.740000 8.392329
58.760000 8.317005
58.780000 8.158739
58.800000 7.766631
58.820000 7.397110
58.840000 7.123148
58.860000 6.927703
58.880000 6.804866
58.900000 6.669509
58.920000 6.530680
58.940000 6.403445
58.960000 6.154956
58.980000 5.854863
59.000000 5.574572
59.020000 5.297277
59.040000 5.149542
59.060000 5.013009
59.080000 4.864993
59.100000 4.791728
59.120000 4.639539
59.140000 4.324141
59.160000 3.872393
59.180000 3.390565
59.200000 2.868982
59.220000 2.365085
59.240000 1.842605
59.260000 1.474106
59.280000 1.317703
59.300000 1.164604
59.320000 0.999210
59.340000 0.764962
59.360000 0.678533
59.380000 0.553371
59.400000 0.254735
59.420000 0.132052
59.440000 0.040540
59.460000 0.118314
59.480000 0.250842
59.500000 0.266708
59.520000 0.427579
59.540000 0.528445
59.560000 0.480820
59.580000 0.386605
59.600000 0.171065
59.620000 0.024100
59.640000 -0.055705
59.660000 -0.242062
59.680000 -0.333448
59.700000 -0.414528
59.720000 -0.502357
59.740000 -0.612017
59.760000 -0.939304
59.780000 -1.269251
59.800000 -1.545902
59.820000 -1.909443
59.840000 -2.227235
59.860000 -2.551581
59.880000 -2.723739
59.900000 -2.877370
59.920000 -3.154370
59.940000 -3.404036
59.960000 -3.741531
59.980000 -4.083060
60.000000 -4.517738
60.020000 -5.006091
60.040000 -5.338391
60.060000 -5.681866
60.080000 -5.982896
60.100000 -6.212719
60.120000 -6.485505
60.140000 -6.749889
60.160000 -7.083281
60.180000 -7.462548
60.200000 -7.842235
60.220000 -8.261902
60.240000 -8.670856
60.260000 -8.918534
60.280000 -8.940995
60.300000 -8.690559
60.320000 -8.469572
60.340000 -8.285736
60.360000 -8.086482
60.380000 -7.848411
60.400000 -7.720994
60.420000 -7.793433
60.440000 -7.720840
60.460000 -7.180646
60.480000 -6.415516
60.500000 -5.626160
60.520000 -4.888029
60.540000 -4.122171
60.560000 -3.542502
60.580000 -3.302512
60.600000 -3.025245
60.620000 -2.670232
60.640000 -2.451023
60.660000 -2.262412
60.680000 -1.901923
60.700000 -1.262095
60.720000 -0.583758
60.740000 0.066264
60.760000 0.744181
60.780000 1.160431
60.800000 1.295844
60.820000 1.398292
60.840000 1.486961
60.860000 1.439868
60.880000 1.451897
60.900000 1.768121
60.920000 2.093909
60.940000 2.268167
60.960000 2.437776
60.980000 2.606727
61.000000 2.571326
61.020000 2.342665
61.040000 2.185701
61.060000 2.172874
61.080000 2.112520
61.100000 2.174275
61.120000 2.352902
61.140000 2.429766
61.160000 2.435577
61.180000 2.322976
61.200000 2.124017
61.220000 1.802261
61.240000 1.518833
61.260000 1.443411
61.280000 1.333961
61.300000 1.332056
61.320000 1.499256
61.340000 1.616100
61.360000 1.645956
61.380000 1.497226
61.400000 1.464780
61.420000 1.394595
61.440000 1.214652
61.460000 1.291166
61.480000 1.568993
61.500000 1.855670
61.520000 2.215291
61.540000 2.575149
61.560000 2.925793
61.580000 3.166945
61.600000 3.289517
61.620000 3.588349
61.640000 3.790263
61.660000 4.135236
61.680000 4.722145
61.700000 5.202363
61.720000 5.745707
61.740000 6.231582
61.760000 6.619615
61.780000 6.901937
61.800000 6.947630
61.820000 7.102241
61.840000 7.348448
61.860000 7.505552
61.880000 7.670148
61.900000 8.006649
61.920000 8.345306
61.940000 8.448791
61.960000 8.460932
61.980000 8.367277
62.000000 8.111576
62.020000 7.709875
62.040000 7.330356
62.060000 7.061379
62.080000 6.939480
62.100000 6.767197
62.120000 6.649652
62.140000 6.526787
62.160000 6.272626
62.180000 6.023072
62.200000 5.726130
62.220000 5.401560
62.240000 5.180643
62.260000 5.020725
62.280000 4.901696
62.300000 4.789011
62.320000 4.676662
62.340000 4.509896
62.360000 4.121443
62.380000 3.660620
62.400000 3.169830
62.420000 2.681757
62.440000 2.184189
62.460000 1.692153
62.480000 1.440862
62.500000 1.330082
62.520000 1.152029
62.540000 0.968249
62.560000 0.804283
62.580000 0.726663
62.600000 0.552405
62.620000 0.261919
62.640000 0.136995
62.660000 0.163573
62.680000 0.246543
62.700000 0.269425
62.720000 0.369535
62.740000 0.492162
62.760000 0.576014
62.780000 0.505115
62.800000 0.301072
62.820000 0.150928
62.840000 0.039209
62.860000 -0.128873
62.880000 -0.265322
62.900000 -0.394545
62.920000 -0.453569
62.940000 -0.484166
62.960000 -0.720991
62.980000 -1.036417
63.000000 -1.328639
63.020000 -1.630048
63.040000 -1.933151
63.060000 -2.346740
63.080000 -2.630042
63.100000 -2.745038
63.120000 -2.940903
63.140000 -3.218954
63.160000 -3.582061
63.180000 -3.855701
63.200000 -4.205701
63.220000 -4.725450
63.240000 -5.179565
63.260000 -5.548288
63.280000 -5.800320
63.300000 -6.081284
63.320000 -6.423288
63.340000 -6.634445
63.360000 -6.916949
63.380000 -7.269175
63.400000 -7.655248
63.420000 -8.069146
63.440000 -8.473101
63.460000 -8.784886
63.480000 -8.970360
63.500000 -8.924709
63.520000 -8.710220
63.540000 -8.521440
63.560000 -8.288690
63.580000 -8.097839
63.600000 -7.947835
63.620000 -7.811778
63.640000 -7.813780
63.660000 -7.634047
63.680000 -7.001683
63.700000 -6.168329
63.720000 -5.440644
63.740000 -4.609810
63.760000 -3.917722
63.780000 -3.470860
63.800000 -3.169158
63.820000 -2.913162
63.840000 -2.483245
63.860000 -2.311368
63.880000 -2.139602
63.900000 -1.606606
63.920000 -0.963642
63.940000 -0.381130
63.960000 0.240382
63.980000 0.848758
64.000000 1.181282
64.020000 1.224426
64.040000 1.318809
64.060000 1.448956
64.080000 1.357934
64.100000 1.474246
64.120000 1.831178
64.140000 2.108949
64.160000 2.274833
64.180000 2.437104
64.200000 2.650781
64.220000 2.514430
64.240000 2.298218
64.260000 2.305262
64.280000 2.269484
64.300000 2.254038
64.320000 2.356164
64.340000 2.553948
64.360000 2.583061
64.380000 2.483231
64.400000 2.366191
64.420000 2.108529
64.440000 1.750225
64.460000 1.464024
64.480000 1.437866
64.500000 1.303937
64.520000 1.309847
64.540000 1.444447
64.560000 1.557804
64.580000 1.459823
64.600000 1.316050
64.620000 1.343273
64.640000 1.168679
64.660000 1.113254
64.680000 1.278101
64.700000 1.564638
64.720000 1.890300
64.740000 2.246700
64.760000 2.686658
64.780000 3.000123
64.800000 3.189981
64.820000 3.439451
64.840000 3.731379
64.860000 3.972027
64.880000 4.365185
64.900000 4.978505
64.920000 5.499794
64.940000 5.961191
64.960000 6.378925
64.980000 6.803339
65.000000 6.944451
65.020000 6.975133
65.040000 7.149839
65.060000 7.359077
65.080000 7.536318
65.100000 7.661200
65.120000 8.053658
65.140000 8.284055
65.160000 8.316361
65.180000 8.298143
65.200000 8.137468
65.220000 7.791571
65.240000 7.398497
65.260000 7.121006
65.280000 6.918055
65.300000 6.793103
65.320000 6.635327
65.340000 6.576149
65.360000 6.494075
65.380000 6.180008
65.400000 5.940620
65.420000 5.706512
65.440000 5.383412
65.460000 5.171051
65.480000 5.051336
65.500000 4.957612
65.520000 4.807482
65.540000 4.672909
65.560000 4.450872
65.580000 4.097427
65.600000 3.556589
65.620000 3.050619
65.640000 2.628502
65.660000 2.085969
65.680000 1.644093
65.700000 1.425109
65.720000 1.348832
65.740000 1.165836
65.760000 0.869749
65.780000 0.783964
65.800000 0.707282
65.820000 0.415662
65.840000 0.176302
65.860000 0.083712
65.880000 0.181498
65.900000 0.204743
65.920000 0.217206
65.940000 0.407414
65.960000 0.488381
65.980000 0.453233
66.000000 0.399796
66.020000 0.228801
66.040000 0.078083
66.060000 -0.095335
66.080000 -0.250072
66.100000 -0.254007
66.120000 -0.393298
66.140000 -0.551172
66.160000 -0.548568
66.180000 -0.768127
66.200000 -1.130716
66.220000 -1.463310
66.240000 -1.742257
66.260000 -2.012718
66.280000 -2.383471
66.300000 -2.646972
66.320000 -2.722016
66.340000 -2.890673
66.360000 -3.239357
66.380000 -3.537026
66.400000 -3.848937
66.420000 -4.255147
66.440000 -4.738221
66.460000 -5.192966
66.480000 -5.506754
66.500000 -5.787241
66.520000 -6.099824
66.540000 -6.366925
66.560000 -6.616521
66.580000 -6.970624
66.600000 -7.342903
66.620000 -7.739562
66.640000 -8.127708
66.660000 -8.583139
66.680000 -8.899979
66.700000 -8.972867
66.720000 -8.888553
66.740000 -8.686400
66.760000 -8.485130
66.780000 -8.251834
66.800000 -8.063152
66.820000 -7.918077
66.840000 -7.815251
66.860000 -7.767779
66.880000 -7.481060
66.900000 -6.788944
66.920000 -5.935775
66.940000 -5.092240
66.960000 -4.361797
66.980000 -3.738003
67.000000 -3.260572
67.020000 -3.104882
67.040000 -2.824465
67.060000 -2.450281
67.080000 -2.307713
67.100000 -2.077679
67.120000 -1.624755
67.140000 -0.904183
67.160000 -0.270167
67.180000 0.268319
67.200000 0.879103
67.220000 1.179069
67.240000 1.195187
67.260000 1.315224
67.280000 1.402815
67.300000 1.413136
67.320000 1.546196
67.340000 1.912300
67.360000 2.251433
67.380000 2.374103
67.400000 2.564759
67.420000 2.701683
67.440000 2.552408
67.460000 2.371932
67.480000 2.289242
67.500000 2.348463
67.520000 2.329684
67.540000 2.345858
67.560000 2.620100
67.580000 2.582487
67.600000 2.425131
67.620000 2.303288
67.640000 2.008181
67.660000 1.671372
67.680000 1.418961
67.700000 1.355064
67.720000 1.325461
67.740000 1.329522
67.760000 1.448592
67.780000 1.562622
67.800000 1.463072
67.820000 1.309147
67.840000 1.303923
67.860000 1.206152
67.880000 1.132326
67.900000 1.365132
67.920000 1.702221
67.940000 2.020742
67.960000 2.412290
67.980000 2.807787
68.000000 3.119782
68.020000 3.304654
68.040000 3.472653
68.060000 3.819978
68.080000 4.108728
68.100000 4.476120
68.120000 5.057904
68.140000 5.618991
68.160000 6.046696
68.180000 6.422658
68.200000 6.785597
68.220000 6.919399
68.240000 6.971842
68.260000 7.129730
68.280000 7.342231
68.300000 7.509711
68.320000 7.734661
68.340000 8.045172
68.360000 8.294936
68.380000 8.342043
68.400000 8.243194
68.420000 8.116813
68.440000 7.740011
68.460000 7.342203
68.480000 7.111918
68.500000 6.940208
68.520000 6.795470
68.540000 6.653854
68.560000 6.608133
68.580000 6.495475
68.600000 6.177235
68.620000 5.875686
68.640000 5.654699
68.660000 5.425310
68.680000 5.123790
68.700000 4.990198
68.720000 4.937797
68.740000 4.829831
68.760000 4.622917
68.780000 4.306133
68.800000 3.922077
68.820000 3.497313
68.840000 2.937360
68.860000 2.365267
68.880000 1.953568
68.900000 1.571892
68.920000 1.372848
68.940000 1.285551
68.960000 1.028029
68.980000 0.857552
69.000000 0.810515
69.020000 0.577079
69.040000 0.305721
69.060000 0.104913
69.080000 0.046785
69.100000 0.151110
69.120000 0.139165
69.140000 0.179607
69.160000 0.411195
69.180000 0.506138
69.200000 0.432480
69.220000 0.289520
69.240000 0.140160
69.260000 0.034098
69.280000 -0.160969
69.300000 -0.335773
69.320000 -0.409388
69.340000 -0.418056
69.360000 -0.473804
69.380000 -0.671503
69.400000 -0.911157
69.420000 -1.174490
69.440000 -1.500349
69.460000 -1.813520
69.480000 -2.207715
69.500000 -2.503116
69.520000 -2.604486
69.540000 -2.802396
69.560000 -3.042371
69.580000 -3.265711
69.600000 -3.580507
69.620000 -3.870012
69.640000 -4.338299
69.660000 -4.873185
69.680000 -5.212361
69.700000 -5.547798
69.720000 -5.896271
69.740000 -6.144649
69.760000 -6.436731
69.780000 -6.686537
69.800000 -6.968061
69.820000 -7.448937
69.840000 -7.824115
69.860000 -8.173527
69.880000 -8.628146
69.900000 -8.931081
69.920000 -9.013967
69.940000 -8.801564
69.960000 -8.607505
69.980000 -8.465567
70.000000 -8.200553
70.020000 -7.985560
70.040000 -7.815923
70.060000 -7.831088
70.080000 -7.766911
70.100000 -7.310639
70.120000 -6.584383
70.140000 -5.796609
70.160000 -4.915826
70.180000 -4.181993
70.200000 -3.633117
70.220000 -3.180767
70.240000 -3.011620
70.260000 -2.620198
70.280000 -2.348911
70.300000 -2.210613
70.320000 -1.864856
70.340000 -1.365622
70.360000 -0.683000
70.380000 -0.032950
70.400000 0.544185
70.420000 1.028001
70.440000 1.233823
70.460000 1.311527
70.480000 1.417645
70.500000 1.428623
70.520000 1.405392
70.540000 1.686145
70.560000 1.999793
70.580000 2.222404
70.600000 2.407473
70.620000 2.579098
70.640000 2.624637
70.660000 2.438364
70.680000 2.270268
70.700000 2.211370
70.720000 2.251223
70.740000 2.194944
70.760000 2.325917
70.780000 2.479674
70.800000 2.443839
70.820000 2.328130
70.840000 2.105952
70.860000 1.813898
70.880000 1.503962
70.900000 1.326455
70.920000 1.260667
70.940000 1.204836
70.960000 1.332224
70.980000 1.483433
71.000000 1.531702
71.020000 1.453003
71.040000 1.353705
71.060000 1.365804
71.080000 1.222508
71.100000 1.260709
71.120000 1.525933
71.140000 1.850979
71.160000 2.254528
71.180000 2.586296
71.200000 2.964583
71.220000 3.290035
71.240000 3.413321
71.260000 3.645048
71.280000 3.923029
71.300000 4.231117
71.320000 4.723966
71.340000 5.223396
71.360000 5.742178
71.380000 6.212145
71.400000 6.592113
71.420000 6.862868
71.440000 6.954128
71.460000 7.050023
71.480000 7.228496
71.500000 7.388764
71.520000 7.591407
71.540000 7.824829
71.560000 8.151037
71.580000 8.312874
71.600000 8.332703
71.620000 8.276410
71.640000 8.002182
71.660000 7.637366
71.680000 7.295124
71.700000 6.985817
71.720000 6.850503
71.740000 6.742873
71.760000 6.566949
71.780000 6.518637
71.800000 6.324200
71.820000 6.061455
71.840000 5.827361
71.860000 5.524510
71.880000 5.285641
71.900000 5.115332
71.920000 4.988083
71.940000 4.903657
71.960000 4.787485
71.980000 4.609698
72.000000 4.298305
72.020000 3.860098
72.040000 3.386700
72.060000 2.872202
72.080000 2.383807
72.100000 1.925939
72.120000 1.584369
72.140000 1.432656
72.160000 1.292609
72.180000 1.062127
72.200000 0.892911
72.220000 0.753045
72.240000 0.579067
72.260000 0.324038
72.280000 0.109198
72.300000 0.102477
72.320000 0.184844
72.340000 0.218271
72.360000 0.294981
72.380000 0.421375
72.400000 0.500382
72.420000 0.484867
72.440000 0.317680
72.460000 0.103709
72.480000 0.010040
72.500000 -0.131282
72.520000 -0.286313
72.540000 -0.354481
72.560000 -0.476829
72.580000 -0.477151
72.600000 -0.633344
72.620000 -0.992194
72.640000 -1.302075
72.660000 -1.555494
72.680000 -1.901265
72.700000 -2.280672
72.720000 -2.549817
72.740000 -2.722100
72.760000 -2.847122
72.780000 -3.151374
72.800000 -3.438765
72.820000 -3.685378
72.840000 -4.096013
72.860000 -4.559552
72.880000 -5.011959
72.900000 -5.387585
72.920000 -5.682706
72.940000 -5.997474
72.960000 -6.269629
72.980000 -6.491456
73.000000 -6.810453
73.020000 -7.149629
73.040000 -7.544986
73.060000 -7.966599
73.080000 -8.330252
73.100000 -8.751670
73.120000 -8.982641
73.140000 -8.968638
73.160000 -8.833477
73.180000 -8.580591
73.200000 -8.427842
73.220000 -8.210664
73.240000 -7.995460
73.260000 -7.910137
73.280000 -7.892507
73.300000 -7.761800
73.320000 -7.218315
73.340000 -6.383070
73.360000 -5.668367
73.380000 -4.872037
73.400000 -4.125672
73.420000 -3.617476
73.440000 -3.336414
73.460000 -3.089031
73.480000 -2.649843
73.500000 -2.401101
73.520000 -2.263112
73.540000 -1.791073
73.560000 -1.124694
73.580000 -0.487023
73.600000 0.158196
73.620000 0.743327
73.640000 1.179868
73.660000 1.311359
73.680000 1.387860
73.700000 1.543437
73.720000 1.491611
73.740000 1.554136
73.760000 1.940446
73.780000 2.207715
73.800000 2.402586
73.820000 2.596784
73.840000 2.750093
73.860000 2.700871
73.880000 2.462604
73.900000 2.389212
73.920000 2.370910
73.940000 2.281428
73.960000 2.324433
73.980000 2.517693
74.000000 2.526851
74.020000 2.423185
74.040000 2.302097
74.060000 2.082651
74.080000 1.684339
74.100000 1.390702
74.120000 1.304274
74.140000 1.176633
74.160000 1.165780
74.180000 1.261717
74.200000 1.374164
74.220000 1.381250
74.240000 1.194319
74.260000 1.234817
74.280000 1.133334
74.300000 1.004209
74.320000 1.229986
74.340000 1.478223
74.360000 1.786647
74.380000 2.231142
74.400000 2.637268
74.420000 3.005402
74.440000 3.234442
74.460000 3.439465
74.480000 3.794100
74.500000 4.009696
74.520000 4.387185
74.540000 4.944617
74.560000 5.492736
74.580000 5.963109
74.600000 6.379836
74.620000 6.813002
74.640000 6.988184
74.660000 7.039842
74.680000 7.209213
74.700000 7.385375
74.720000 7.569436
74.740000 7.733849
74.760000 8.044038
74.780000 8.346160
74.800000 8.420784
74.820000 8.406655
74.840000 8.271578
74.860000 7.966921
74.880000 7.525465
74.900000 7.207098
74.920000 6.957054
74.940000 6.807176
74.960000 6.650437
74.980000 6.565254
75.000000 6.437249
75.020000 6.227185
75.040000 5.951459
75.060000 5.691388
75.080000 5.457560
75.100000 5.162859
75.120000 5.033958
75.140000 4.934716
75.160000 4.795705
75.180000 4.728601
75.200000 4.461010
75.220000 4.105087
75.240000 3.694242
75.260000 3.180024
75.280000 2.671156
75.300000 2.161994
75.320000 1.710931
75.340000 1.460789
75.360000 1.304035
75.380000 1.113688
75.400000 0.923858
75.420000 0.788950
75.440000 0.700042
75.460000 0.435281
75.480000 0.188667
75.500000 0.105053
75.520000 0.097575
75.540000 0.160353
75.560000 0.168180
75.580000 0.318465
75.600000 0.474518
75.620000 0.487401
75.640000 0.404571
75.660000 0.224600
75.680000 0.137695
75.700000 -0.005461
75.720000 -0.212277
75.740000 -0.309068
75.760000 -0.365334
75.780000 -0.407890
75.800000 -0.514050
75.820000 -0.740540
75.840000 -1.011281
75.860000 -1.301865
75.880000 -1.619097
75.900000 -2.013306
75.920000 -2.359469
75.940000 -2.557407
75.960000 -2.727520
75.980000 -2.955186
76.000000 -3.226039
76.020000 -3.506093
76.040000 -3.771387
76.060000 -4.191446
76.080000 -4.722985
76.100000 -5.101818
76.120000 -5.451903
76.140000 -5.783180
76.160000 -6.067687
76.180000 -6.362121
76.200000 -6.536715
76.220000 -6.831276
76.240000 -7.212434
76.260000 -7.596532
76.280000 -7.915235
76.300000 -8.324609
76.320000 -8.748547
76.340000 -8.924485
76.360000 -8.796957
76.380000 -8.634602
76.400000 -8.482525
76.420000 -8.272307
76.440000 -7.971346
76.460000 -7.821972
76.480000 -7.839855
76.500000 -7.815615
76.520000 -7.528980
76.540000 -6.903421
76.560000 -6.264714
76.580000 -5.391968
76.600000 -4.514321
76.620000 -3.932691
76.640000 -3.498601
76.660000 -3.177658
76.680000 -2.918400
76.700000 -2.594320
76.720000 -2.418521
76.740000 -2.187816
76.760000 -1.702039
76.780000 -1.096562
76.800000 -0.416362
76.820000 0.235537
76.840000 0.768995
76.860000 1.124652
76.880000 1.263860
76.900000 1.362864
76.920000 1.376811
76.940000 1.426047
76.960000 1.636825
76.980000 1.890805
77.000000 2.238410
77.020000 2.478330
77.040000 2.670960
77.060000 2.789204
77.080000 2.619890
77.100000 2.515775
77.120000 2.380488
77.140000 2.269077
77.160000 2.334207
77.180000 2.373080
77.200000 2.475963
77.220000 2.569912
77.240000 2.434093
77.260000 2.265577
77.280000 1.984921
77.300000 1.623620
77.320000 1.390170
77.340000 1.243247
77.360000 1.157518
77.380000 1.227269
77.400000 1.348902
77.420000 1.416090
77.440000 1.382272
77.460000 1.322870
77.480000 1.245263
77.500000 1.127439
77.520000 1.161397
77.540000 1.302915
77.560000 1.620610
77.580000 2.027197
77.600000 2.438518
77.620000 2.839337
77.640000 3.196380
77.660000 3.396208
77.680000 3.636744
77.700000 3.842958
77.720000 4.132351
77.740000 4.595247
77.760000 5.040862
77.780000 5.584612
77.800000 6.100426
77.820000 6.484735
77.840000 6.802569
77.860000 6.937996
77.880000 7.025083
77.900000 7.173182
77.920000 7.291623
77.940000 7.485807
77.960000 7.771252
77.980000 8.064511
78.000000 8.278930
78.020000 8.460694
78.040000 8.397497
78.060000 8.178904
78.080000 7.848453
78.100000 7.476733
78.120000 7.152373
78.140000 6.930448
78.160000 6.807947
78.180000 6.688960
78.200000 6.617095
78.220000 6.439224
78.240000 6.247840
78.260000 5.997418
78.280000 5.648062
78.300000 5.389139
78.320000 5.200948
78.340000 5.021383
78.360000 4.879725
78.380000 4.818054
78.400000 4.677796
78.420000 4.401636
78.440000 3.953458
78.460000 3.534002
78.480000 3.051796
78.500000 2.430074
78.520000 1.929314
78.540000 1.556572
78.560000 1.359363
78.580000 1.199738
78.600000 0.995597
78.620000 0.879649
78.640000 0.775842
78.660000 0.604609
78.680000 0.369269
78.700000 0.178137
78.720000 0.092898
78.740000 0.165296
78.760000 0.203749
78.780000 0.308690
78.800000 0.443109
78.820000 0.536063
78.840000 0.618893
78.860000 0.449970
78.880000 0.252649
78.900000 0.150830
78.920000 -0.017350
78.940000 -0.164680
78.960000 -0.299952
78.980000 -0.368975
79.000000 -0.371397
79.020000 -0.528473
79.040000 -0.788417
79.060000 -1.076495
79.080000 -1.414396
79.100000 -1.738574
79.120000 -2.116945
79.140000 -2.438938
79.160000 -2.646818
79.180000 -2.828358
79.200000 -3.023355
79.220000 -3.294124
79.240000 -3.610922
79.260000 -3.954733
79.280000 -4.372383
79.300000 -4.839577
79.320000 -5.278261
79.340000 -5.619019
79.360000 -5.915652
79.380000 -6.181338
79.400000 -6.457134
79.420000 -6.700681
79.440000 -6.978452
79.460000 -7.378038
79.480000 -7.749421
79.500000 -8.094506
79.520000 -8.504832
79.540000 -8.849735
79.560000 -8.970318
79.580000 -8.820188
79.600000 -8.562316
79.620000 -8.415309
79.640000 -8.218100
79.660000 -7.899355
79.680000 -7.764895
79.700000 -7.716569
79.720000 -7.754210
79.740000 -7.433183
79.760000 -6.574468
79.780000 -5.851279
79.800000 -5.029939
79.820000 -4.241718
79.840000 -3.652358
79.860000 -3.193132
79.880000 -3.041797
79.900000 -2.707593
79.920000 -2.352776
79.940000 -2.278460
79.960000 -2.043581
79.980000 -1.496288
80.000000 -0.855732
80.020000 -0.238449
80.040000 0.388271
80.060000 0.939934
80.080000 1.184923
80.100000 1.246020
80.120000 1.418247
80.140000 1.424422
80.160000 1.413724
80.180000 1.643211
80.200000 2.015855
80.220000 2.316367
80.240000 2.417471
80.260000 2.679320
80.280000 2.759783
80.300000 2.555278
80.320000 2.377534
80.340000 2.310051
80.360000 2.304380
80.380000 2.249249
80.400000 2.356374
80.420000 2.489518
80.440000 2.472952
80.460000 2.353658
80.480000 2.169668
80.500000 1.890146
80.520000 1.493669
80.540000 1.328639
80.560000 1.235251
80.580000 1.140784
80.600000 1.219455
80.620000 1.392887
80.640000 1.478223
80.660000 1.342405
80.680000 1.302565
80.700000 1.288086
80.720000 1.173832
80.740000 1.152225
80.760000 1.423834
80.780000 1.764690
80.800000 2.146184
80.820000 2.553598
80.840000 2.945832
80.860000 3.308645
80.880000 3.463355
80.900000 3.712754
80.920000 3.980821
80.940000 4.216120
80.960000 4.722005
80.980000 5.243014
81.000000 5.701359
81.020000 6.153961
81.040000 6.562440
81.060000 6.892485
81.080000 6.938430
81.100000 6.974489
81.120000 7.213414
81.140000 7.385417
81.160000 7.494168
81.180000 7.773269
81.200000 8.142033
81.220000 8.385608
81.240000 8.390411
81.260000 8.317607
81.280000 8.176972
81.300000 7.796178
81.320000 7.389786
81.340000 7.087720
81.360000 6.921738
81.380000 6.816125
81.400000 6.662452
81.420000 6.546756
81.440000 6.394567
81.460000 6.138278
81.480000 5.895305
81.500000 5.565484
81.520000 5.261121
81.540000 5.115234
81.560000 4.956632
81.580000 4.856591
81.600000 4.705565
81.620000 4.517080
81.640000 4.281039
81.660000 3.797265
81.680000 3.296042
81.700000 2.800001
81.720000 2.281666
81.740000 1.802849
81.760000 1.464304
81.780000 1.306472
81.800000 1.195439
81.820000 1.037243
81.840000 0.862663
81.860000 0.822516
81.880000 0.621609
81.900000 0.366776
81.920000 0.264033
81.940000 0.213369
81.960000 0.272688
81.980000 0.313325
82.000000 0.450712
82.020000 0.591418
82.040000 0.645345
82.060000 0.593057
82.080000 0.479405
82.100000 0.314026
82.120000 0.107854
82.140000 -0.061181
82.160000 -0.220427
82.180000 -0.295289
82.200000 -0.390694
82.220000 -0.509919
82.240000 -0.659615
82.260000 -0.936167
82.280000 -1.254534
82.300000 -1.591427
82.320000 -1.985537
82.340000 -2.325819
82.360000 -2.606811
82.380000 -2.812842
82.400000 -2.983193
82.420000 -3.235030
82.440000 -3.474893
82.460000 -3.774201
82.480000 -4.156409
82.500000 -4.632566
82.520000 -5.080939
82.540000 -5.447141
82.560000 -5.790546
82.580000 -6.097262
82.600000 -6.328037
82.620000 -6.523678
82.640000 -6.790890
82.660000 -7.109089
82.680000 -7.476117
82.700000 -7.806443
82.720000 -8.185780
82.740000 -8.604788
82.760000 -8.797503
82.780000 -8.839499
82.800000 -8.682017
82.820000 -8.434690
82.840000 -8.272531
82.860000 -8.023103
82.880000 -7.839589
82.900000 -7.720882
82.920000 -7.728164
82.940000 -7.682877
82.960000 -7.201553
82.980000 -6.440372
83.000000 -5.601809
83.020000 -4.890718
83.040000 -4.208572
83.060000 -3.648857
83.080000 -3.352896
83.100000 -3.204460
83.120000 -2.815013
83.140000 -2.546456
83.160000 -2.419796
83.180000 -2.053188
83.200000 -1.420642
83.220000 -0.687075
83.240000 -0.090098
83.260000 0.502777
83.280000 1.049510
83.300000 1.202581
83.320000 1.253749
83.340000 1.413962
83.360000 1.469219
83.380000 1.510571
83.400000 1.832607
83.420000 2.225009
83.440000 2.481172
83.460000 2.653372
83.480000 2.817211
83.500000 2.892563
83.520000 2.643331
83.540000 2.469312
83.560000 2.498831
83.580000 2.476537
83.600000 2.425761
83.620000 2.580974
83.640000 2.698071
83.660000 2.556104
83.680000 2.376651
83.700000 2.147248
83.720000 1.772098
83.740000 1.389554
83.760000 1.227829
83.780000 1.135743
83.800000 1.063192
83.820000 1.122776
83.840000 1.250277
83.860000 1.308194
83.880000 1.099362
83.900000 1.074142
83.920000 1.099404
83.940000 0.933744
83.960000 1.085107
83.980000 1.410433
84.000000 1.779688
84.020000 2.232123
84.040000 2.554214
84.060000 3.050577
84.080000 3.344298
84.100000 3.452432
84.120000 3.809266
84.140000 4.093968
84.160000 4.413665
84.180000 4.976992
84.200000 5.522241
84.220000 6.019865
84.240000 6.439196
84.260000 6.822006
84.280000 7.074487
84.300000 7.078590
84.320000 7.157443
84.340000 7.362886
84.360000 7.560501
84.380000 7.702089
84.400000 7.922979
84.420000 8.304654
84.440000 8.447797
84.460000 8.346580
84.480000 8.254802
84.500000 7.942107
84.520000 7.568035
84.540000 7.209885
84.560000 6.905928
84.580000 6.834007
84.600000 6.661863
84.620000 6.555592
84.640000 6.477831
84.660000 6.229229
84.680000 5.948924
84.700000 5.699790
84.720000 5.428965
84.740000 5.172703
84.760000 5.007016
84.780000 4.934758
84.800000 4.867458
84.820000 4.726206
84.840000 4.528479
84.860000 4.216218
84.880000 3.790179
84.900000 3.282179
84.920000 2.698659
84.940000 2.292337
84.960000 1.814990
84.980000 1.528159
85.000000 1.416651
85.020000 1.213028
85.040000 1.055532
85.060000 0.868069
85.080000 0.728021
85.100000 0.516262
85.120000 0.242482
85.140000 0.121689
85.160000 0.132458
85.180000 0.169553
85.200000 0.225482
85.220000 0.382432
85.240000 0.445965
85.260000 0.486015
85.280000 0.425604
85.300000 0.269859
85.320000 0.118244
85.340000 -0.068308
85.360000 -0.184200
85.380000 -0.272352
85.400000 -0.362183
85.420000 -0.445783
85.440000 -0.504877
85.460000 -0.666098
85.480000 -0.989954
85.500000 -1.331874
85.520000 -1.647020
85.540000 -1.962950
85.560000 -2.311004
85.580000 -2.568763
85.600000 -2.717381
85.620000 -2.910726
85.640000 -3.128562
85.660000 -3.469684
85.680000 -3.804393
85.700000 -4.187511
85.720000 -4.712035
85.740000 -5.100740
85.760000 -5.511515
85.780000 -5.837107
85.800000 -6.068919
85.820000 -6.347404
85.840000 -6.593499
85.860000 -6.905956
85.880000 -7.282115
85.900000 -7.636050
85.920000 -8.001776
85.940000 -8.467205
85.960000 -8.797895
85.980000 -8.961664
86.000000 -8.904320
86.020000 -8.607435
86.040000 -8.479094
86.060000 -8.272279
86.080000 -8.017375
86.100000 -7.804230
86.120000 -7.751815
86.140000 -7.809915
86.160000 -7.580932
86.180000 -6.965120
86.200000 -6.178817
86.220000 -5.450362
86.240000 -4.606869
86.260000 -3.918212
86.280000 -3.498433
86.300000 -3.269268
86.320000 -3.007531
86.340000 -2.573497
86.360000 -2.445142
86.380000 -2.264806
86.400000 -1.774016
86.420000 -1.145951
86.440000 -0.489432
86.460000 0.162131
86.480000 0.760383
86.500000 1.122482
86.520000 1.254338
86.540000 1.362359
86.560000 1.472454
86.580000 1.447178
86.600000 1.596356
86.620000 1.961578
86.640000 2.233439
86.660000 2.446304
86.680000 2.615381
86.700000 2.772064
86.720000 2.658609
86.740000 2.394352
86.760000 2.366695
86.780000 2.311130
86.800000 2.243689
86.820000 2.320750
86.840000 2.468779
86.860000 2.495106
86.880000 2.404112
86.900000 2.230960
86.920000 1.988156
86.940000 1.638870
86.960000 1.377287
86.980000 1.285915
87.000000 1.197764
87.020000 1.217005
87.040000 1.386585
87.060000 1.470858
87.080000 1.428399
87.100000 1.344925
87.120000 1.337966
87.140000 1.221640
87.160000 1.188228
87.180000 1.384065
87.200000 1.672478
87.220000 2.049169
87.240000 2.421616
87.260000 2.847486
87.280000 3.216587
87.300000 3.382527
87.320000 3.576726
87.340000 3.885290
87.360000 4.094864
87.380000 4.480391
87.400000 4.999510
87.420000 5.478383
87.440000 5.969579
87.460000 6.348048
87.480000 6.652677
87.500000 6.817833
87.520000 6.874897
87.540000 7.008867
87.560000 7.177509
87.580000 7.353196
87.600000 7.587598
87.620000 7.918918
87.640000 8.187264
87.660000 8.281129
87.680000 8.303646
87.700000 8.149749
87.720000 7.829534
87.740000 7.460265
87.760000 7.142697
87.780000 7.009357
87.800000 6.862700
87.820000 6.670616
87.840000 6.614378
87.860000 6.512167
87.880000 6.255360
87.900000 5.947748
87.920000 5.647264
87.940000 5.410943
87.960000 5.241978
87.980000 4.970005
88.000000 4.862669
88.020000 4.850990
88.040000 4.661833
88.060000 4.366978
88.080000 3.964661
88.100000 3.561014
88.120000 3.080082
88.140000 2.461820
88.160000 1.962754
88.180000 1.662312
88.200000 1.439490
88.220000 1.236455
88.240000 1.071019
88.260000 0.941894
88.280000 0.865086
88.300000 0.657892
88.320000 0.405510
88.340000 0.261821
88.360000 0.170869
88.380000 0.173418
88.400000 0.210499
88.420000 0.320957
88.440000 0.466606
88.460000 0.542028
88.480000 0.586111
88.500000 0.454003
88.520000 0.243841
88.540000 0.116494
88.560000 -0.037585
88.580000 -0.220777
88.600000 -0.339694
88.620000 -0.454255
88.640000 -0.420325
88.660000 -0.547041
88.680000 -0.933044
88.700000 -1.167671
88.720000 -1.385423
88.740000 -1.733869
88.760000 -2.204956
88.780000 -2.520172
88.800000 -2.573931
88.820000 -2.724859
88.840000 -3.075811
88.860000 -3.324161
88.880000 -3.438849
88.900000 -3.773543
88.920000 -4.346253
88.940000 -4.800942
88.960000 -5.071795
88.980000 -5.418813
89.000000 -5.824756
89.020000 -6.091142
89.040000 -6.237267
89.060000 -6.470213
89.080000 -6.873986
89.100000 -7.191009
89.120000 -7.521488
89.140000 -7.935932
89.160000 -8.305144
89.180000 -8.668378
89.200000 -8.830215
89.220000 -8.728606
89.240000 -8.535850
89.260000 -8.362460
89.280000 -8.201660
89.300000 -8.033451
89.320000 -7.795800
89.340000 -7.756170
89.360000 -7.841661
89.380000 -7.660654
89.400000 -6.952153
89.420000 -6.105104
89.440000 -5.280291
89.460000 -4.535634
89.480000 -3.922483
89.500000 -3.387638
89.520000 -3.169200
89.540000 -2.889511
89.560000 -2.540309
89.580000 -2.334543
89.600000 -2.078884
89.620000 -1.643883
89.640000 -1.024570
89.660000 -0.295121
89.680000 0.379925
89.700000 0.881596
89.720000 1.183509
89.740000 1.384191
89.760000 1.511985
89.780000 1.557272
89.800000 1.480422
89.820000 1.730774
89.840000 2.148747
89.860000 2.326071
89.880000 2.504194
89.900000 2.747657
89.920000 2.873659
89.940000 2.665051
89.960000 2.403762
89.980000 2.371638
90.000000 2.337764
90.020000 2.212924
90.040000 2.262720
90.060000 2.440003
90.080000 2.457227
90.100000 2.315443
90.120000 2.097410
90.140000 1.863246
90.160000 1.523748
90.180000 1.244311
90.200000 1.167293
90.220000 1.088552
90.240000 1.165962
90.260000 1.325909
90.280000 1.425235
90.300000 1.374234
90.320000 1.328905
90.340000 1.370243
90.360000 1.240152
90.380000 1.220099
90.400000 1.479694
90.420000 1.809571
90.440000 2.181626
90.460000 2.553822
90.480000 2.957007
90.500000 3.375525
90.520000 3.505379
90.540000 3.672187
90.560000 3.965669
90.580000 4.228947
90.600000 4.643726
90.620000 5.113483
90.640000 5.585509
90.660000 6.101183
90.680000 6.497002
90.700000 6.764956
90.720000 6.869701
90.740000 6.948330
90.760000 7.152625
90.780000 7.292211
90.800000 7.422204
90.820000 7.686588
90.840000 8.066037
90.860000 8.346454
90.880000 8.353260
90.900000 8.321094
90.920000 8.222497
90.940000 7.836382
90.960000 7.414404
90.980000 7.128176
91.000000 6.929916
91.020000 6.863400
91.040000 6.681496
91.060000 6.515234
91.080000 6.451085
91.100000 6.216920
91.120000 5.912795
91.140000 5.621497
91.160000 5.296395
91.180000 5.194031
91.200000 5.009396
91.220000 4.816724
91.240000 4.795999
91.260000 4.628015
91.280000 4.352148
91.300000 3.957113
91.320000 3.449127
91.340000 2.984313
91.360000 2.484491
91.380000 1.939900
91.400000 1.564750
91.420000 1.385871
91.440000 1.250725
91.460000 1.067771
91.480000 0.867719
91.500000 0.772258
91.520000 0.619999
91.540000 0.380121
91.560000 0.142890
91.580000 0.061237
91.600000 0.177367
91.620000 0.190516
91.640000 0.244457
91.660000 0.397906
91.680000 0.490650
91.700000 0.514932
91.720000 0.356078
91.740000 0.161095
91.760000 0.045287
91.780000 -0.067342
91.800000 -0.257466
91.820000 -0.369913
91.840000 -0.438529
91.860000 -0.466144
91.880000 -0.602187
91.900000 -0.900276
91.920000 -1.200817
91.940000 -1.482578
91.960000 -1.811321
91.980000 -2.192339
92.000000 -2.476495
92.020000 -2.688072
92.040000 -2.848523
92.060000 -3.017655
92.080000 -3.384418
92.100000 -3.700600
92.120000 -4.018392
92.140000 -4.477114
92.160000 -4.930123
92.180000 -5.396379
92.200000 -5.741772
92.220000 -5.932624
92.240000 -6.193913
92.260000 -6.527473
92.280000 -6.746906
92.300000 -7.009525
92.320000 -7.339934
92.340000 -7.772708
92.360000 -8.239973
92.380000 -8.527140
92.400000 -8.735356
92.420000 -8.897011
92.440000 -8.783597
92.460000 -8.576040
92.480000 -8.274477
92.500000 -8.075531
92.520000 -7.997434
92.540000 -7.805434
92.560000 -7.706641
92.580000 -7.686882
92.600000 -7.374383
92.620000 -6.625161
92.640000 -5.754837
92.660000 -4.999944
92.680000 -4.329925
92.700000 -3.734796
92.720000 -3.368594
92.740000 -3.161736
92.760000 -2.796612
92.780000 -2.492207
92.800000 -2.325147
92.820000 -2.054420
92.840000 -1.452107
92.860000 -0.716076
92.880000 -0.199002
92.900000 0.452855
92.920000 0.998104
92.940000 1.169379
92.960000 1.227185
92.980000 1.368745
93.000000 1.489496
93.020000 1.501371
93.040000 1.727917
93.060000 2.150161
93.080000 2.446640
93.100000 2.598087
93.120000 2.794582
93.140000 2.883335
93.160000 2.712816
93.180000 2.553080
93.200000 2.505188
93.220000 2.466413
93.240000 2.452073
93.260000 2.563736
93.280000 2.652952
93.300000 2.572250
93.320000 2.396228
93.340000 2.211664
93.360000 1.879602
93.380000 1.443523
93.400000 1.304218
93.420000 1.258146
93.440000 1.141400
93.460000 1.218783
93.480000 1.351563
93.500000 1.433889
93.520000 1.299246
93.540000 1.217551
93.560000 1.181394
93.580000 1.108408
93.600000 1.167321
93.620000 1.406288
93.640000 1.771986
93.660000 2.153620
93.680000 2.570696
93.700000 2.988276
93.720000 3.236640
93.740000 3.381491
93.760000 3.742750
93.780000 3.977334
93.800000 4.212619
93.820000 4.702540
93.840000 5.275110
93.860000 5.829699
93.880000 6.153345
93.900000 6.498374
93.920000 6.901433
93.940000 6.977989
93.960000 7.020546
93.980000 7.128106
94.000000 7.377029
94.020000 7.687148
94.040000 7.850217
94.060000 8.118228
94.080000 8.368132
94.100000 8.471813
94.120000 8.392693
94.140000 8.008763
94.160000 7.631863
94.180000 7.394141
94.200000 7.113094
94.220000 6.886842
94.240000 6.670433
94.260000 6.638828
94.280000 6.626071
94.300000 6.325923
94.320000 6.026881
94.340000 5.770773
94.360000 5.561087
94.380000 5.349818
94.400000 5.027012
94.420000 4.874628
94.440000 4.932280
94.460000 4.840292
94.480000 4.588623
94.500000 4.154505
94.520000 3.814209
94.540000 3.504188
94.560000 2.840905
94.580000 2.188488
94.600000 1.807260
94.620000 1.581792
94.640000 1.422056
94.660000 1.069717
94.680000 0.862607
94.700000 0.882492
94.720000 0.744041
94.740000 0.453429
94.760000 0.130848
94.780000 0.045231
94.800000 0.134488
94.820000 0.105711
94.840000 0.080379
94.860000 0.223956
94.880000 0.440924
94.900000 0.550780
94.920000 0.398466
94.940000 0.208076
94.960000 0.165940
94.980000 0.085154
95.000000 -0.171695
95.020000 -0.355517
95.040000 -0.353697
95.060000 -0.318408
95.080000 -0.442464
95.100000 -0.724814
95.120000 -0.956934
95.140000 -1.137745
95.160000 -1.497464
95.180000 -1.975217
95.200000 -2.304016
95.220000 -2.463178
95.240000 -2.658777
95.260000 -2.942177
95.280000 -3.202122
95.300000 -3.415505
95.320000 -3.720778
95.340000 -4.183814
95.360000 -4.673651
95.380000 -5.093024
95.400000 -5.445209
95.420000 -5.803177
95.440000 -6.094475
95.460000 -6.347222
95.480000 -6.589914
95.500000 -6.814332
95.520000 -7.160915
95.540000 -7.578930
95.560000 -7.932347
95.580000 -8.285596
95.600000 -8.612042
95.620000 -8.897921
95.640000 -8.892320
95.660000 -8.579344
95.680000 -8.409414
95.700000 -8.271340
95.720000 -8.044108
95.740000 -7.813206
95.760000 -7.715925
95.780000 -7.786796
95.800000 -7.678354
95.820000 -7.049659
95.840000 -6.392383
95.860000 -5.599484
95.880000 -4.729161
95.900000 -4.094920
95.920000 -3.601736
95.940000 -3.354310
95.960000 -3.106297
95.980000 -2.730390
96.000000 -2.562882
96.020000 -2.323537
96.040000 -1.959141
96.060000 -1.385759
96.080000 -0.632546
96.100000 0.034658
96.120000 0.581588
96.140000 0.987167
96.160000 1.206418
96.180000 1.328345
96.200000 1.366532
96.220000 1.369459
96.240000 1.587688
96.260000 1.859731
96.280000 2.168771
96.300000 2.450799
96.320000 2.660388
96.340000 2.835094
96.360000 2.794176
96.380000 2.621430
96.400000 2.526641
96.420000 2.464368
96.440000 2.459145
96.460000 2.508703
96.480000 2.578804
96.500000 2.645012
96.520000 2.598213
96.540000 2.357131
96.560000 2.083043
96.580000 1.752633
96.600000 1.422322
96.620000 1.264560
96.640000 1.112273
96.660000 1.176857
96.680000 1.289934
96.700000 1.352557
96.720000 1.375047
96.740000 1.297440
96.760000 1.288940
96.780000 1.142381
96.800000 1.139874
96.820000 1.296082
96.840000 1.539110
96.860000 1.921374
96.880000 2.318481
96.900000 2.669392
96.920000 3.085628
96.940000 3.285400
96.960000 3.455023
96.980000 3.718692
97.000000 3.923995
97.020000 4.357946
97.040000 4.804807
97.060000 5.287601
97.080000 5.862201
97.100000 6.262053
97.120000 6.651529
97.140000 6.804418
97.160000 6.893787
97.180000 7.089582
97.200000 7.196204
97.220000 7.378360
97.240000 7.612664
97.260000 7.921172
97.280000 8.230114
97.300000 8.373187
97.320000 8.370442
97.340000 8.235394
97.360000 7.953100
97.380000 7.589642
97.400000 7.258337
97.420000 7.043903
97.440000 6.913126
97.460000 6.778623
97.480000 6.710273
97.500000 6.524995
97.520000 6.314692
97.540000 6.108884
97.560000 5.746155
97.580000 5.435953
97.600000 5.268697
97.620000 5.081654
97.640000 4.958648
97.660000 4.838919
97.680000 4.713813
97.700000 4.483542
97.720000 4.112719
97.740000 3.615613
97.760000 3.147187
97.780000 2.572894
97.800000 2.000423
97.820000 1.613356
97.840000 1.351437
97.860000 1.172782
97.880000 0.993721
97.900000 0.825596
97.920000 0.744909
97.940000 0.571491
97.960000 0.322736
97.980000 0.127599
98.000000 0.040848
98.020000 0.029309
98.040000 0.112195
98.060000 0.201508
98.080000 0.333182
98.100000 0.457826
98.120000 0.503029
98.140000 0.434496
98.160000 0.233198
98.180000 0.109884
98.200000 -0.023358
98.220000 -0.203021
98.240000 -0.284702
98.260000 -0.403185
98.280000 -0.391296
98.300000 -0.475918
98.320000 -0.795587
98.340000 -1.045981
98.360000 -1.335053
98.380000 -1.670280
98.400000 -2.055176
98.420000 -2.403622
98.440000 -2.555054
98.460000 -2.709805
98.480000 -2.949851
98.500000 -3.218394
98.520000 -3.443204
98.540000 -3.776288
98.560000 -4.215713
98.580000 -4.674772
98.600000 -5.091862
98.620000 -5.441246
98.640000 -5.746939
98.660000 -6.035955
98.680000 -6.285537
98.700000 -6.523930
98.720000 -6.823126
98.740000 -7.156644
98.760000 -7.546708
98.780000 -7.960438
98.800000 -8.272951
98.820000 -8.641785
98.840000 -8.857899
98.860000 -8.769706
98.880000 -8.561266
98.900000 -8.336022
98.920000 -8.228084
98.940000 -8.056501
98.960000 -7.802382
98.980000 -7.737140
99.000000 -7.804524
99.020000 -7.654114
99.040000 -7.031790
99.060000 -6.221009
99.080000 -5.405789
99.100000 -4.636879
99.120000 -3.979981
99.140000 -3.524815
99.160000 -3.261020
99.180000 -3.025749
99.200000 -2.623265
99.220000 -2.401605
99.240000 -2.243227
99.260000 -1.741823
99.280000 -1.100104
99.300000 -0.465472
99.320000 0.226308
99.340000 0.756280
99.360000 1.153779
99.380000 1.280804
99.400000 1.357584
99.420000 1.479484
99.440000 1.487171
99.460000 1.573096
99.480000 1.950025
99.500000 2.270632
99.520000 2.417779
99.540000 2.653232
99.560000 2.792369
99.580000 2.685692
99.600000 2.507429
99.620000 2.371666
99.640000 2.387140
99.660000 2.376273
99.680000 2.341223
99.700000 2.533587
99.720000 2.581563
99.740000 2.410231
99.760000 2.281022
99.780000 2.018837
99.800000 1.620708
99.820000 1.394693
99.840000 1.269965
99.860000 1.149676
99.880000 1.201069
99.900000 1.305730
99.920000 1.446240
99.940000 1.407170
99.960000 1.304246
99.980000 1.315462
100.000000 1.227199
100.020000 1.170989
100.040000 1.337490
100.060000 1.669061
100.080000 2.042377
100.100000 2.392223
100.120000 2.825333
100.140000 3.152760
100.160000 3.376212
100.180000 3.594986
100.200000 3.816603
100.220000 4.102230
100.240000 4.464091
100.260000 4.993614
100.280000 5.531484
100.300000 5.927555
100.320000 6.341046
100.340000 6.743559
100.360000 6.857364
100.380000 6.904262
100.400000 7.077245
100.420000 7.259359
100.440000 7.460069
100.460000 7.652069
100.480000 7.946504
100.500000 8.308659
100.520000 8.409652
100.540000 8.341259
100.560000 8.219570
100.580000 7.910614
100.600000 7.510775
100.620000 7.207253
100.640000 6.974082
100.660000 6.805412
100.680000 6.699448
100.700000 6.584215
100.720000 6.395799
100.740000 6.186197
100.760000 5.917613
100.780000 5.640346
100.800000 5.360209
100.820000 5.122361
100.840000 4.974388
100.860000 4.907620
100.880000 4.789865
100.900000 4.636122
100.920000 4.410472
100.940000 4.051832
100.960000 3.602898
100.980000 3.079480
101.000000 2.519780
101.020000 2.062948
101.040000 1.670882
101.060000 1.387426
101.080000 1.274208
101.100000 1.072196
101.120000 0.919993
101.140000 0.808344
101.160000 0.597510
101.180000 0.373372
101.200000 0.161277
101.220000 0.057064
101.240000 0.057176
101.260000 0.123664
101.280000 0.227051
101.300000 0.353851
101.320000 0.482262
101.340000 0.484656
101.360000 0.373428
101.380000 0.275628
101.400000 0.067538
101.420000 -0.104437
101.440000 -0.202363
101.460000 -0.347634
101.480000 -0.393172
101.500000 -0.461145
101.520000 -0.647096
101.540000 -0.777033
101.560000 -1.103003
101.580000 -1.467763
101.600000 -1.746290
101.620000 -2.163436
101.640000 -2.419698
101.660000 -2.665919
101.680000 -2.918568
101.700000 -3.048057
101.720000 -3.317622
101.740000 -3.629673
101.760000 -3.966818
101.780000 -4.412727
101.800000 -4.809386
101.820000 -5.254553
101.840000 -5.645079
101.860000 -5.915470
101.880000 -6.196938
101.900000 -6.401863
101.920000 -6.686005
101.940000 -7.020812
101.960000 -7.322248
101.980000 -7.737490
102.000000 -8.111366
102.020000 -8.476014
102.040000 -8.837384
102.060000 -8.840605
102.080000 -8.713931
102.100000 -8.551954
102.120000 -8.333697
102.140000 -8.133547
102.160000 -7.897731
102.180000 -7.722842
102.200000 -7.756689
102.220000 -7.751199
102.240000 -7.376693
102.260000 -6.752703
102.280000 -5.926239
102.300000 -5.124504
102.320000 -4.426212
102.340000 -3.776274
102.360000 -3.406459
102.380000 -3.300313
102.400000 -2.926409
102.420000 -2.550419
102.440000 -2.446808
102.460000 -2.218217
102.480000 -1.661597
102.500000 -0.952607
102.520000 -0.296857
102.540000 0.241642
102.560000 0.833943
102.580000 1.188606
102.600000 1.201713
102.620000 1.334857
102.640000 1.457834
102.660000 1.468687
102.680000 1.680558
102.700000 2.076111
102.720000 2.360393
102.740000 2.551105
102.760000 2.749967
102.780000 2.870494
102.800000 2.683157
102.820000 2.499489
102.840000 2.450827
102.860000 2.467589
102.880000 2.372156
102.900000 2.453306
102.920000 2.652616
102.940000 2.581184
102.960000 2.384255
102.980000 2.231478
103.000000 1.934705
103.020000 1.534503
103.040000 1.325503
103.060000 1.242869
103.080000 1.176101
103.100000 1.225295
103.120000 1.336817
103.140000 1.456630
103.160000 1.355918
103.180000 1.245221
103.200000 1.280412
103.220000 1.156300
103.240000 1.159731
103.260000 1.427741
103.280000 1.793033
103.300000 2.151029
103.320000 2.488174
103.340000 2.934713
103.360000 3.267980
103.380000 3.377234
103.400000 3.610208
103.420000 3.920915
103.440000 4.186180
103.460000 4.617078
103.480000 5.135861
103.500000 5.660343
103.520000 6.092192
103.540000 6.491036
103.560000 6.800651
103.580000 6.900901
103.600000 6.994135
103.620000 7.165480
103.640000 7.356290
103.660000 7.529820
103.680000 7.749645
103.700000 8.121812
103.720000 8.387134
103.740000 8.340335
103.760000 8.300901
103.780000 8.115413
103.800000 7.726259
103.820000 7.349149
103.840000 7.063592
103.860000 6.932885
103.880000 6.783581
103.900000 6.618271
103.920000 6.539334
103.940000 6.373548
103.960000 6.113254
103.980000 5.826913
104.000000 5.547966
104.020000 5.281076
104.040000 5.106215
104.060000 4.952515
104.080000 4.894050
104.100000 4.772487
104.120000 4.581355
104.140000 4.321775
104.160000 3.903228
104.180000 3.418992
104.200000 2.865761
104.220000 2.404266
104.240000 1.925981
104.260000 1.536799
104.280000 1.408837
104.300000 1.234271
104.320000 1.030998
104.340000 0.870379
104.360000 0.726243
104.380000 0.547952
104.400000 0.271945
104.420000 0.068602
104.440000 0.044559
104.460000 0.136281
104.480000 0.107266
104.500000 0.227275
104.520000 0.380107
104.540000 0.454633
104.560000 0.389238
104.580000 0.229851
104.600000 0.141588
104.620000 0.004607
104.640000 -0.178641
104.660000 -0.296689
104.680000 -0.329835
104.700000 -0.368219
104.720000 -0.475092
104.740000 -0.648412
104.760000 -0.914700
104.780000 -1.172208
104.800000 -1.549893
104.820000 -1.884923
104.840000 -2.204858
104.860000 -2.507695
104.880000 -2.665975
104.900000 -2.851870
104.920000 -3.089647
104.940000 -3.391601
104.960000 -3.699703
104.980000 -4.060696
105.000000 -4.532988
105.020000 -5.037907
105.040000 -5.404641
105.060000 -5.690352
105.080000 -6.024920
105.100000 -6.281798
105.120000 -6.528383
105.140000 -6.761301
105.160000 -7.078450
105.180000 -7.502289
105.200000 -7.855622
105.220000 -8.187558
105.240000 -8.591961
105.260000 -8.876356
105.280000 -8.876944
105.300000 -8.670408
105.320000 -8.510490
105.340000 -8.346874
105.360000 -8.110512
105.380000 -7.924281
105.400000 -7.800379
105.420000 -7.818023
105.440000 -7.707845
105.460000 -7.193375
105.480000 -6.583711
105.500000 -5.753353
105.520000 -4.885060
105.540000 -4.242796
105.560000 -3.698317
105.580000 -3.370904
105.600000 -3.147593
105.620000 -2.789919
105.640000 -2.518323
105.660000 -2.332723
105.680000 -2.008489
105.700000 -1.422714
105.720000 -0.757722
105.740000 -0.110501
105.760000 0.474756
105.780000 0.954526
105.800000 1.204037
105.820000 1.290186
105.840000 1.409565
105.860000 1.495265
105.880000 1.550817
105.900000 1.841933
105.920000 2.177271
105.940000 2.440969
105.960000 2.657797
105.980000 2.783113
106.000000 2.834421
106.020000 2.669658
106.040000 2.490331
106.060000 2.492767
106.080000 2.453796
106.100000 2.425705
106.120000 2.545154
106.140000 2.612678
106.160000 2.567895
106.180000 2.358461
106.200000 2.165397
106.220000 1.833699
106.240000 1.492647
106.260000 1.356884
106.280000 1.219315
106.300000 1.209807
106.320000 1.305114
106.340000 1.377175
106.360000 1.456994
106.380000 1.341649
106.400000 1.301277
106.420000 1.259519
106.440000 1.182360
106.460000 1.278437
106.480000 1.518063
106.500000 1.861033
106.520000 2.253800
106.540000 2.578146
106.560000 3.006453
106.580000 3.248053
106.600000 3.400353
106.620000 3.709436
106.640000 3.896899
106.660000 4.269164
106.680000 4.706839
106.700000 5.175280
106.720000 5.708794
106.740000 6.077475
106.760000 6.480492
106.780000 6.728253
106.800000 6.796324
106.820000 6.983857
106.840000 7.134001
106.860000 7.345242
106.880000 7.612468
106.900000 7.815923
106.920000 8.205791
106.940000 8.403938
106.960000 8.380763
106.980000 8.328922
107.000000 8.036014
107.020000 7.679684
107.040000 7.357523
107.060000 7.064614
107.080000 6.919665
107.100000 6.758263
107.120000 6.634893
107.140000 6.539110
107.160000 6.339184
107.180000 6.084911
107.200000 5.809647
107.220000 5.553007
107.240000 5.355952
107.260000 5.126758
107.280000 4.968786
107.300000 4.931944
107.320000 4.783228
107.340000 4.518270
107.360000 4.184304
107.380000 3.793134
107.400000 3.302904
107.420000 2.715225
107.440000 2.143369
107.460000 1.735829
107.480000 1.456056
107.500000 1.231162
107.520000 1.025481
107.540000 0.862397
107.560000 0.760943
107.580000 0.619453
107.600000 0.349622
107.620000 0.166052
107.640000 0.026620
107.660000 -0.013555
107.680000 0.040652
107.700000 0.065116
107.720000 0.193737
107.740000 0.344203
107.760000 0.411405
107.780000 0.341584
107.800000 0.193289
107.820000 0.072117
107.840000 -0.042654
107.860000 -0.214672
107.880000 -0.338209
107.900000 -0.402765
107.920000 -0.427607
107.940000 -0.470611
107.960000 -0.690562
107.980000 -0.964916
108.000000 -1.203911
108.020000 -1.522922
108.040000 -1.917327
108.060000 -2.258281
108.080000 -2.460433
108.100000 -2.639579
108.120000 -2.863296
108.140000 -3.105653
108.160000 -3.372557
108.180000 -3.676360
108.200000 -4.117284
108.220000 -4.596381
108.240000 -4.977693
108.260000 -5.386927
108.280000 -5.742823
108.300000 -6.006296
108.320000 -6.277485
108.340000 -6.521900
108.360000 -6.838642
108.380000 -7.168715
108.400000 -7.519037
108.420000 -7.933425
108.440000 -8.268106
108.460000 -8.647471
108.480000 -8.935170
108.500000 -8.902248
108.520000 -8.665003
108.540000 -8.459840
108.560000 -8.328138
108.580000 -8.143392
108.600000 -7.879386
108.620000 -7.810223
108.640000 -7.861448
108.660000 -7.705912
108.680000 -7.103208
108.700000 -6.327603
108.720000 -5.550990
108.740000 -4.744284
108.760000 -3.981829
108.780000 -3.523807
108.800000 -3.240589
108.820000 -2.999437
108.840000 -2.603534
108.860000 -2.353364
108.880000 -2.269161
108.900000 -1.825703
108.920000 -1.198548
108.940000 -0.592735
108.960000 0.066936
108.980000 0.635963
109.000000 1.039974
109.020000 1.214582
109.040000 1.289948
109.060000 1.402577
109.080000 1.433665
109.100000 1.528818
109.120000 1.868861
109.140000 2.240651
109.160000 2.424263
109.180000 2.629258
109.200000 2.835598
109.220000 2.785116
109.240000 2.539945
109.260000 2.458487
109.280000 2.422078
109.300000 2.361654
109.320000 2.406324
109.340000 2.496800
109.360000 2.612440
109.380000 2.468821
109.400000 2.302658
109.420000 2.087538
109.440000 1.689156
109.460000 1.422056
109.480000 1.289696
109.500000 1.190902
109.520000 1.196476
109.540000 1.329354
109.560000 1.461951
109.580000 1.444041
109.600000 1.345934
109.620000 1.331930
109.640000 1.233164
109.660000 1.163512
109.680000 1.295339
109.700000 1.569161
109.720000 1.937464
109.740000 2.263476
109.760000 2.677612
109.780000 3.086874
109.800000 3.212722
109.820000 3.450625
109.840000 3.715989
109.860000 3.935170
109.880000 4.328693
109.900000 4.802524
109.920000 5.346093
109.940000 5.839068
109.960000 6.268075
109.980000 6.659749
110.000000 6.867811
110.020000 6.954814
110.040000 7.118793
110.060000 7.325917
110.080000 7.513184
110.100000 7.731763
110.120000 8.047272
110.140000 8.361074
110.160000 8.486978
110.180000 8.452138
110.200000 8.288368
110.220000 7.973167
110.240000 7.560740
110.260000 7.170746
110.280000 6.969069
110.300000 6.786619
110.320000 6.631714
110.340000 6.546014
110.360000 6.390170
110.380000 6.210591
110.400000 5.941488
110.420000 5.665608
110.440000 5.374968
110.460000 5.189620
110.480000 4.998067
110.500000 4.871155
110.520000 4.838303
110.540000 4.683216
110.560000 4.444374
110.580000 4.119930
110.600000 3.687198
110.620000 3.154482
110.640000 2.607931
110.660000 2.087496
110.680000 1.689842
110.700000 1.449712
110.720000 1.203617
110.740000 1.078371
110.760000 0.926771
110.780000 0.789426
110.800000 0.606332
110.820000 0.325550
110.840000 0.141560
110.860000 0.014928
110.880000 -0.045385
110.900000 -0.016580
110.920000 0.117138
110.940000 0.256374
110.960000 0.355783
110.980000 0.428741
111.000000 0.329373
111.020000 0.217444
111.040000 0.084356
111.060000 -0.096903
111.080000 -0.227331
111.100000 -0.310315
111.120000 -0.357982
111.140000 -0.389252
111.160000 -0.494375
111.180000 -0.733804
111.200000 -0.948840
111.220000 -1.277933
111.240000 -1.644135
111.260000 -2.042237
111.280000 -2.366037
111.300000 -2.549845
111.320000 -2.809621
111.340000 -2.998695
111.360000 -3.258863
111.380000 -3.539855
111.400000 -3.854483
111.420000 -4.327726
111.440000 -4.762111
111.460000 -5.181764
111.480000 -5.552895
111.500000 -5.873726
111.520000 -6.209289
111.540000 -6.430276
111.560000 -6.639164
111.580000 -6.964714
111.600000 -7.344023
111.620000 -7.738148
111.640000 -8.074733
111.660000 -8.440291
111.680000 -8.851094
111.700000 -9.015451
111.720000 -8.837847
111.740000 -8.693822
111.760000 -8.530781
111.780000 -8.283999
111.800000 -8.054750
111.820000 -7.894888
111.840000 -7.846758
111.860000 -7.830318
111.880000 -7.546204
111.900000 -6.902987
111.920000 -6.165724
111.940000 -5.258012
111.960000 -4.487029
111.980000 -3.893580
112.000000 -3.370428
112.020000 -3.184267
112.040000 -2.911888
112.060000 -2.523589
112.080000 -2.373164
112.100000 -2.152093
112.120000 -1.702095
112.140000 -1.031166
112.160000 -0.343068
112.180000 0.243631
112.200000 0.815976
112.220000 1.198884
112.240000 1.274264
112.260000 1.360315
112.280000 1.466306
112.300000 1.510109
112.320000 1.652957
112.340000 1.976617
112.360000 2.366331
112.380000 2.504292
112.400000 2.702286
112.420000 2.862666
112.440000 2.703980
112.460000 2.556286
112.480000 2.430564
112.500000 2.418115
112.520000 2.433379
112.540000 2.399799
112.560000 2.573259
112.580000 2.613028
112.600000 2.419418
112.620000 2.227487
112.640000 1.961003
112.660000 1.590782
112.680000 1.337321
112.700000 1.214162
112.720000 1.147534
112.740000 1.217355
112.760000 1.320139
112.780000 1.436759
112.800000 1.406288
112.820000 1.317633
112.840000 1.302285
112.860000 1.238066
112.880000 1.170359
112.900000 1.381474
112.920000 1.713942
112.940000 2.051493
112.960000 2.405470
112.980000 2.795352
113.000000 3.142775
113.020000 3.293970
113.040000 3.458425
113.060000 3.712166
113.080000 4.007567
113.100000 4.356909
113.120000 4.852320
113.140000 5.405397
113.160000 5.851097
113.180000 6.295171
113.200000 6.629866
113.220000 6.783315
113.240000 6.955206
113.260000 7.116385
113.280000 7.320372
113.300000 7.555418
113.320000 7.810083
113.340000 8.142285
113.360000 8.448021
113.380000 8.502088
113.400000 8.449659
113.420000 8.265823
113.440000 7.889609
113.460000 7.498593
113.480000 7.170312
113.500000 6.949619
113.520000 6.805678
113.540000 6.677379
113.560000 6.567243
113.580000 6.406540
113.600000 6.214932
113.620000 5.915358
113.640000 5.623360
113.660000 5.393537
113.680000 5.191034
113.700000 4.994287
113.720000 4.909034
113.740000 4.817550
113.760000 4.687361
113.780000 4.371431
113.800000 3.956357
113.820000 3.560678
113.840000 3.008553
113.860000 2.442201
113.880000 1.953007
113.900000 1.562272
113.920000 1.410461
113.940000 1.195705
113.960000 0.951347
113.980000 0.843577
114.000000 0.712421
114.020000 0.506908
114.040000 0.258712
114.060000 -0.000658
114.080000 -0.028679
114.100000 0.002675
114.120000 0.012841
114.140000 0.109044
114.160000 0.234374
114.180000 0.381004
114.200000 0.403395
114.220000 0.219615
114.240000 0.099606
114.260000 -0.031802
114.280000 -0.126689
114.300000 -0.296997
114.320000 -0.429021
114.340000 -0.399950
114.360000 -0.423952
114.380000 -0.575342
114.400000 -0.841952
114.420000 -1.116096
114.440000 -1.388140
114.460000 -1.743797
114.480000 -2.162022
114.500000 -2.408523
114.520000 -2.609429
114.540000 -2.804314
114.560000 -3.016213
114.580000 -3.326178
114.600000 -3.611636
114.620000 -3.961412
114.640000 -4.435398
114.660000 -4.890102
114.680000 -5.312821
114.700000 -5.644309
114.720000 -5.953545
114.740000 -6.215338
114.760000 -6.489468
114.780000 -6.764634
114.800000 -7.038890
114.820000 -7.447102
114.840000 -7.850903
114.860000 -8.235506
114.880000 -8.638032
114.900000 -8.906505
114.920000 -8.949901
114.940000 -8.826854
114.960000 -8.603892
114.980000 -8.461548
115.000000 -8.248067
115.020000 -7.958519
115.040000 -7.875311
115.060000 -7.919982
115.080000 -7.767457
115.100000 -7.316101
115.120000 -6.637568
115.140000 -5.904393
115.160000 -5.021327
115.180000 -4.232181
115.200000 -3.791846
115.220000 -3.447153
115.240000 -3.210692
115.260000 -2.857891
115.280000 -2.633361
115.300000 -2.455182
115.320000 -2.086544
115.340000 -1.550215
115.360000 -0.888892
115.380000 -0.139389
115.400000 0.463469
115.420000 0.903917
115.440000 1.242463
115.460000 1.339170
115.480000 1.435443
115.500000 1.465368
115.520000 1.537696
115.540000 1.873370
115.560000 2.150063
115.580000 2.386986
115.600000 2.663692
115.620000 2.776475
115.640000 2.795968
115.660000 2.651915
115.680000 2.464074
115.700000 2.404798
115.720000 2.390809
115.740000 2.382099
115.760000 2.492865
115.780000 2.556511
115.800000 2.561314
115.820000 2.426223
115.840000 2.137082
115.860000 1.838754
115.880000 1.537640
115.900000 1.364754
115.920000 1.220043
115.940000 1.195383
115.960000 1.347012
115.980000 1.442123
116.000000 1.455790
116.020000 1.416104
116.040000 1.393993
116.060000 1.297482
116.080000 1.211851
116.100000 1.287161
116.120000 1.503429
116.140000 1.830576
116.160000 2.183783
116.180000 2.517721
116.200000 2.873113
116.220000 3.119250
116.240000 3.233125
116.260000 3.477806
116.280000 3.672551
116.300000 3.982907
116.320000 4.496103
116.340000 4.935584
116.360000 5.492596
116.380000 5.992825
116.400000 6.369305
116.420000 6.662788
116.440000 6.799068
116.460000 7.005282
116.480000 7.197786
116.500000 7.362886
116.520000 7.654562
116.540000 7.986764
116.560000 8.286296
116.580000 8.481867
116.600000 8.521622
116.620000 8.406151
116.640000 8.118143
116.660000 7.699919
116.680000 7.349695
116.700000 7.088434
116.720000 6.908239
116.740000 6.776467
116.760000 6.675195
116.780000 6.555368
116.800000 6.363816
116.820000 6.169351
116.840000 5.826605
116.860000 5.505914
116.880000 5.312569
116.900000 5.134124
116.920000 4.932546
116.940000 4.859378
116.960000 4.776674
116.980000 4.561849
117.000000 4.208110
117.020000 3.776722
117.040000 3.314177
117.060000 2.786726
117.080000 2.157975
117.100000 1.714992
117.120000 1.501007
117.140000 1.275469
117.160000 1.039946
117.180000 0.883486
117.200000 0.811313
117.220000 0.668297
117.240000 0.356414
117.260000 0.121927
117.280000 0.042010
117.300000 -0.034392
117.320000 -0.037683
117.340000 0.022391
117.360000 0.185447
117.380000 0.345897
117.400000 0.379211
117.420000 0.307962
117.440000 0.206298
117.460000 0.075380
117.480000 -0.056154
117.500000 -0.241194
117.520000 -0.348586
117.540000 -0.338167
117.560000 -0.381704
117.580000 -0.431052
117.600000 -0.630894
117.620000 -0.880098
117.640000 -1.090456
117.660000 -1.448802
117.680000 -1.859899
117.700000 -2.184959
117.720000 -2.385711
117.740000 -2.553248
117.760000 -2.787160
117.780000 -3.075447
117.800000 -3.306727
117.820000 -3.565817
117.840000 -4.051510
117.860000 -4.584758
117.880000 -4.990954
117.900000 -5.323646
117.920000 -5.674682
117.940000 -6.075178
117.960000 -6.276197
117.980000 -6.441240
118.000000 -6.757044
118.020000 -7.180002
118.040000 -7.545238
118.060000 -7.858997
118.080000 -8.254942
118.100000 -8.712390
118.120000 -8.988341
118.140000 -8.933546
118.160000 -8.741265
118.180000 -8.534912
118.200000 -8.344858
118.220000 -8.152466
118.240000 -7.905642
118.260000 -7.825795
118.280000 -7.857303
118.300000 -7.737266
118.320000 -7.283907
118.340000 -6.459893
118.360000 -5.615490
118.380000 -4.846047
118.400000 -4.106711
118.420000 -3.572721
118.440000 -3.281479
118.460000 -3.062788
118.480000 -2.716933
118.500000 -2.450057
118.520000 -2.287156
118.540000 -1.978522
118.560000 -1.308278
118.580000 -0.599484
118.600000 0.057302
118.620000 0.640948
118.640000 1.096071
118.660000 1.332378
118.680000 1.359237
118.700000 1.436073
118.720000 1.514716
118.740000 1.534671
118.760000 1.830058
118.780000 2.167693
118.800000 2.424151
118.820000 2.615871
118.840000 2.760470
118.860000 2.792705
118.880000 2.564576
118.900000 2.394576
118.920000 2.400681
118.940000 2.357621
118.960000 2.341587
118.980000 2.462380
119.000000 2.575373
119.020000 2.485934
119.040000 2.260437
119.060000 2.038344
119.080000 1.691341
119.100000 1.323024
119.120000 1.161761
119.140000 1.090022
119.160000 1.074072
119.180000 1.202819
119.200000 1.332154
119.220000 1.408767
119.240000 1.312746
119.260000 1.273214
119.280000 1.262487
119.300000 1.158835
119.320000 1.266632
119.340000 1.548268
119.360000 1.960611
119.380000 2.304142
119.400000 2.653722
119.420000 3.101648
119.440000 3.287094
119.460000 3.417311
119.480000 3.662566
119.500000 3.903746
119.520000 4.232517
119.540000 4.701840
119.560000 5.238939
119.580000 5.753563
119.600000 6.224104
119.620000 6.583739
119.640000 6.853878
119.660000 6.944115
119.680000 7.071014
119.700000 7.297980
119.720000 7.477826
119.740000 7.664658
119.760000 7.979790
119.780000 8.334692
119.800000 8.485844
119.820000 8.423501
119.840000 8.303674
119.860000 8.026870
119.880000 7.605354
119.900000 7.164710
119.920000 6.952013
119.940000 6.807947
119.960000 6.631154
119.980000 6.560367
120.000000 6.390016
120.020000 6.257432
120.040000 5.999070
120.060000 5.649154
120.080000 5.415032
120.100000 5.198974
120.120000 5.020207
120.140000 4.900758
120.160000 4.850430
120.180000 4.758722
120.200000 4.517234
120.220000 4.207087
120.240000 3.800458
120.260000 3.255068
120.280000 2.731483
120.300000 2.176095
120.320000 1.742341
120.340000 1.503275
120.360000 1.304428
120.380000 1.115396
120.400000 0.941964
120.420000 0.800964
120.440000 0.654867
120.460000 0.380401
120.480000 0.096959
120.500000 -0.047135
120.520000 -0.059430
120.540000 -0.022699
120.560000 0.034798
120.580000 0.152721
120.600000 0.279885
120.620000 0.414892
120.640000 0.270027
120.660000 0.120429
120.680000 0.015754
120.700000 -0.113721
120.720000 -0.260575
120.740000 -0.378525
120.760000 -0.442114
120.780000 -0.388846
120.800000 -0.468987
120.820000 -0.734336
120.840000 -0.971035
120.860000 -1.224062
120.880000 -1.575953
120.900000 -1.969055
120.920000 -2.314322
120.940000 -2.514108
120.960000 -2.692301
120.980000 -2.919688
121.000000 -3.160574
121.020000 -3.453734
121.040000 -3.760772
121.060000 -4.222197
121.080000 -4.714541
121.100000 -5.137849
121.120000 -5.516136
121.140000 -5.808988
121.160000 -6.089952
121.180000 -6.365580
121.200000 -6.610975
121.220000 -6.903702
121.240000 -7.258001
121.260000 -7.683703
121.280000 -8.102558
121.300000 -8.471462
121.320000 -8.843826
121.340000 -9.019890
121.360000 -8.922049
121.380000 -8.686302
121.400000 -8.480509
121.420000 -8.292892
121.440000 -8.066765
121.460000 -7.882061
121.480000 -7.804622
121.500000 -7.811036
121.520000 -7.639172
121.540000 -6.934523
121.560000 -6.185847
121.580000 -5.416838
121.600000 -4.543504
121.620000 -3.930507
121.640000 -3.424747
121.660000 -3.250167
121.680000 -3.013356
121.700000 -2.556651
121.720000 -2.460209
121.740000 -2.285994
121.760000 -1.759901
121.780000 -1.127383
121.800000 -0.463623
121.820000 0.150886
121.840000 0.743985
121.860000 1.122132
121.880000 1.192541
121.900000 1.344015
121.920000 1.454782
121.940000 1.417967
121.960000 1.629866
121.980000 1.972192
122.000000 2.355870
122.020000 2.506070
122.040000 2.685272
122.060000 2.933537
122.080000 2.720336
122.100000 2.552996
122.120000 2.482419
122.140000 2.451555
122.160000 2.407781
122.180000 2.414026
122.200000 2.577922
122.220000 2.610914
122.240000 2.403188
122.260000 2.214226
122.280000 1.972290
122.300000 1.522418
122.320000 1.284585
122.340000 1.171886
122.360000 1.086157
122.380000 1.124708
122.400000 1.227269
122.420000 1.413304
122.440000 1.303825
122.460000 1.218629
122.480000 1.243471
122.500000 1.141344
122.520000 1.093957
122.540000 1.247882
122.560000 1.640956
122.580000 1.975343
122.600000 2.283235
122.620000 2.728220
122.640000 3.063937
122.660000 3.214431
122.680000 3.423039
122.700000 3.695292
122.720000 3.981283
122.740000 4.376416
122.760000 4.887623
122.780000 5.482164
122.800000 5.908146
122.820000 6.312549
122.840000 6.733631
122.860000 6.830548
122.880000 6.950277
122.900000 7.120278
122.920000 7.321436
122.940000 7.592555
122.960000 7.751367
122.980000 8.159047
123.000000 8.489275
123.020000 8.515419
123.040000 8.460652
123.060000 8.332941
123.080000 7.993135
123.100000 7.532075
123.120000 7.220808
123.140000 7.008895
123.160000 6.865724
123.180000 6.692321
123.200000 6.547134
123.220000 6.448774
123.240000 6.181380
123.260000 5.902587
123.280000 5.610085
123.300000 5.377279
123.320000 5.196803
123.340000 4.976166
123.360000 4.942222
123.380000 4.831385
123.400000 4.637271
123.420000 4.411480
123.440000 4.055403
123.460000 3.527112
123.480000 3.011480
123.500000 2.513142
123.520000 2.020700
123.540000 1.626575
123.560000 1.344435
123.580000 1.247714
123.600000 1.089574
123.620000 0.816354
123.640000 0.692158
123.660000 0.549268
123.680000 0.305469
123.700000 0.028077
123.720000 -0.076276
123.740000 0.000826
123.760000 0.064794
123.780000 0.095083
123.800000 0.227625
123.820000 0.383580
123.840000 0.368204
123.860000 0.258502
123.880000 0.115346
123.900000 -0.013653
123.920000 -0.166080
123.940000 -0.281076
123.960000 -0.343097
123.980000 -0.404375
124.000000 -0.470541
124.020000 -0.568075
124.040000 -0.754571
124.060000 -1.067757
124.080000 -1.408319
124.100000 -1.707024
124.120000 -1.998826
124.140000 -2.359539
124.160000 -2.586576
124.180000 -2.701992
124.200000 -2.909956
124.220000 -3.204418
124.240000 -3.514495
124.260000 -3.858586
124.280000 -4.262107
124.300000 -4.785776
124.320000 -5.229459
124.340000 -5.540544
124.360000 -5.904561
124.380000 -6.210913
124.400000 -6.441142
124.420000 -6.735255
124.440000 -7.086880
124.460000 -7.450225
124.480000 -7.852570
124.500000 -8.221250
124.520000 -8.648647
124.540000 -8.986268
124.560000 -9.041063
124.580000 -8.934596
124.600000 -8.773417
124.620000 -8.537194
124.640000 -8.305144
124.660000 -8.092993
124.680000 -7.889090
124.700000 -7.849055
124.720000 -7.792915
124.740000 -7.445492
124.760000 -6.738490
124.780000 -5.904169
124.800000 -5.087073
124.820000 -4.373839
124.840000 -3.777786
124.860000 -3.412004
124.880000 -3.211294
124.900000 -2.902674
124.920000 -2.561398
124.940000 -2.403678
124.960000 -2.188124
124.980000 -1.605276
125.000000 -0.926939
125.020000 -0.310973
125.040000 0.349958
125.060000 0.843927
125.080000 1.181520
125.100000 1.288674
125.120000 1.338092
125.140000 1.495461
125.160000 1.503037
125.180000 1.690010
125.200000 2.124143
125.220000 2.373571
125.240000 2.579140
125.260000 2.772681
125.280000 2.837712
125.300000 2.733933
125.320000 2.523561
125.340000 2.463192
125.360000 2.447942
125.380000 2.423899
125.400000 2.487376
125.420000 2.589208
125.440000 2.587178
125.460000 2.372184
125.480000 2.159501
125.500000 1.872362
125.520000 1.467357
125.540000 1.269867
125.560000 1.217411
125.580000 1.097458
125.600000 1.216879
125.620000 1.356002
125.640000 1.394147
125.660000 1.372008
125.680000 1.262656
125.700000 1.255206
125.720000 1.184307
125.740000 1.131542
125.760000 1.383799
125.780000 1.696004
125.800000 2.075509
125.820000 2.396900
125.840000 2.781755
125.860000 3.080867
125.880000 3.216797
125.900000 3.441481
125.920000 3.682353
125.940000 3.968848
125.960000 4.484480
125.980000 4.964151
126.000000 5.505143
126.020000 6.004881
126.040000 6.365356
126.060000 6.748852
126.080000 6.836163
126.100000 6.955976
126.120000 7.206160
126.140000 7.356696
126.160000 7.578286
126.180000 7.856603
126.200000 8.178176
126.220000 8.446817
126.240000 8.454308
126.260000 8.341161
126.280000 8.079088
126.300000 7.728514
126.320000 7.333913
126.340000 7.040164
126.360000 6.877473
126.380000 6.749006
126.400000 6.652145
126.420000 6.556936
126.440000 6.346284
126.460000 6.142395
126.480000 5.896467
126.500000 5.552335
126.520000 5.352101
126.540000 5.140874
126.560000 4.970117
126.580000 4.958676
126.600000 4.804471
126.620000 4.602416
126.640000 4.315809
126.660000 3.917862
126.680000 3.412872
126.700000 2.812478
126.720000 2.250523
126.740000 1.804026
126.760000 1.533565
126.780000 1.278745
126.800000 1.058879
126.820000 0.982098
126.840000 0.880924
126.860000 0.656772
126.880000 0.447730
126.900000 0.215792
126.920000 0.062553
126.940000 0.040960
126.960000 -0.065326
126.980000 0.059626
127.000000 0.237217
127.020000 0.295653
127.040000 0.406840
127.060000 0.340310
127.080000 0.223662
127.100000 0.096581
127.120000 -0.073126
127.140000 -0.275754
127.160000 -0.364550
127.180000 -0.407946
127.200000 -0.444313
127.220000 -0.486939
127.240000 -0.685815
127.260000 -0.869973
127.280000 -1.133601
127.300000 -1.502883
127.320000 -1.847870
127.340000 -2.187382
127.360000 -2.391761
127.380000 -2.650109
127.400000 -2.790731
127.420000 -3.012600
127.440000 -3.269478
127.460000 -3.559670
127.480000 -4.005761
127.500000 -4.395405
127.520000 -4.871295
127.540000 -5.278247
127.560000 -5.625194
127.580000 -5.916660
127.600000 -6.186057
127.620000 -6.450049
127.640000 -6.703019
127.660000 -7.090240
127.680000 -7.422890
127.700000 -7.846982
127.720000 -8.245322
127.740000 -8.563325
127.760000 -8.922525
127.780000 -8.940603
127.800000 -8.734670
127.820000 -8.526412
127.840000 -8.350305
127.860000 -8.105176
127.880000 -7.854796
127.900000 -7.744114
127.920000 -7.749645
127.940000 -7.761380
127.960000 -7.245342
127.980000 -6.488558
128.000000 -5.737277
128.020000 -4.939477
128.040000 -4.218248
128.060000 -3.674805
128.080000 -3.338094
128.100000 -3.174941
128.120000 -2.851575
128.140000 -2.517385
128.160000 -2.451345
128.180000 -2.148649
128.200000 -1.495237
128.220000 -0.918523
128.240000 -0.197462
128.260000 0.431920
128.280000 0.913482
128.300000 1.210395
128.320000 1.293617
128.340000 1.437348
128.360000 1.504774
128.380000 1.571822
128.400000 1.843235
128.420000 2.217923
128.440000 2.497780
128.460000 2.634425
128.480000 2.870452
128.500000 2.925443
128.520000 2.681211
128.540000 2.565403
128.560000 2.528588
128.580000 2.461526
128.600000 2.454370
128.620000 2.513002
128.640000 2.582193
128.660000 2.538754
128.680000 2.267075
128.700000 2.064432
128.720000 1.719781
128.740000 1.309861
128.760000 1.202567
128.780000 1.028673
128.800000 1.017191
128.820000 1.144705
128.840000 1.230084
128.860000 1.313488
128.880000 1.198226
128.900000 1.210031
128.920000 1.166494
128.940000 1.077545
128.960000 1.175625
128.980000 1.411091
129.000000 1.833307
129.020000 2.153536
129.040000 2.517091
129.060000 2.977900
129.080000 3.194070
129.100000 3.355851
129.120000 3.640035
129.140000 3.853222
129.160000 4.229101
129.180000 4.700076
129.200000 5.166192
129.220000 5.768715
129.240000 6.183424
129.260000 6.602755
129.280000 6.880372
129.300000 6.929734
129.320000 7.149139
129.340000 7.303246
129.360000 7.468779
129.380000 7.685341
129.400000 7.975057
129.420000 8.326626
129.440000 8.476714
129.460000 8.466183
129.480000 8.372333
129.500000 8.131643
129.520000 7.699499
129.540000 7.254150
129.560000 7.038274
129.580000 6.907721
129.600000 6.693763
129.620000 6.547344
129.640000 6.456126
129.660000 6.312577
129.680000 6.086045
129.700000 5.685899
129.720000 5.450698
129.740000 5.324682
129.760000 5.079343
129.780000 4.860919
129.800000 4.815604
129.820000 4.746945
129.840000 4.533268
129.860000 4.156073
129.880000 3.702280
129.900000 3.277124
129.920000 2.766379
129.940000 2.153760
129.960000 1.700499
129.980000 1.479008
130.000000 1.298644
130.020000 1.132200
130.040000 0.936363
130.060000 0.805530
130.080000 0.742136
130.100000 0.509274
130.120000 0.228171
130.140000 0.088053
130.160000 0.039882
130.180000 0.097351
130.200000 0.146377
130.220000 0.194409
130.240000 0.326012
130.260000 0.460949
130.280000 0.397724
130.300000 0.188793
130.320000 0.030387
130.340000 -0.060467
130.360000 -0.216310
130.380000 -0.370165
130.400000 -0.459436
130.420000 -0.479293
130.440000 -0.464562
130.460000 -0.723526
130.480000 -1.000919
130.500000 -1.191028
130.520000 -1.555802
130.540000 -1.911123
130.560000 -2.259667
130.580000 -2.543669
130.600000 -2.677528
130.620000 -2.917349
130.640000 -3.199867
130.660000 -3.404260
130.680000 -3.763601
130.700000 -4.176210
130.720000 -4.590261
130.740000 -5.050482
130.760000 -5.433866
130.780000 -5.762203
130.800000 -6.079141
130.820000 -6.296208
130.840000 -6.584327
130.860000 -6.901167
130.880000 -7.176753
130.900000 -7.571886
130.920000 -8.010822
130.940000 -8.377570
130.960000 -8.745032
130.980000 -8.999585
131.000000 -8.934190
131.020000 -8.723593
131.040000 -8.527168
131.060000 -8.358357
131.080000 -8.083275
131.100000 -7.852052
131.120000 -7.744534
131.140000 -7.771392
131.160000 -7.642631
131.180000 -7.030306
131.200000 -6.316022
131.220000 -5.598028
131.240000 -4.706335
131.260000 -4.063665
131.280000 -3.588853
131.300000 -3.264773
131.320000 -3.077100
131.340000 -2.680986
131.360000 -2.458837
131.380000 -2.368613
131.400000 -1.857995
131.420000 -1.294611
131.440000 -0.670103
131.460000 0.097155
131.480000 0.599274
131.500000 1.031782
131.520000 1.248330
131.540000 1.332462
131.560000 1.471348
131.580000 1.445624
131.600000 1.601663
131.620000 1.945320
131.640000 2.300235
131.660000 2.483651
131.680000 2.688590
131.700000 2.904368
131.720000 2.784737
131.740000 2.618573
131.760000 2.479450
131.780000 2.416841
131.800000 2.397334
131.820000 2.383975
131.840000 2.471034
131.860000 2.532677
131.880000 2.415273
131.900000 2.223132
131.920000 1.972528
131.940000 1.556040
131.960000 1.353537
131.980000 1.187906
132.000000 1.063682
132.020000 1.131066
132.040000 1.258090
132.060000 1.414396
132.080000 1.372904
132.100000 1.317787
132.120000 1.327071
132.140000 1.209023
132.160000 1.168203
132.180000 1.280874
132.200000 1.597686
132.220000 1.947910
132.240000 2.278264
132.260000 2.718445
132.280000 3.046922
132.300000 3.257365
132.320000 3.460820
132.340000 3.662286
132.360000 3.920102
132.380000 4.326312
132.400000 4.803449
132.420000 5.335983
132.440000 5.807252
132.460000 6.285803
132.480000 6.717121
132.500000 6.846946
132.520000 6.967865
132.540000 7.155958
132.560000 7.338114
132.580000 7.517483
132.600000 7.712032
132.620000 8.060968
132.640000 8.359085
132.660000 8.459854
132.680000 8.410926
132.700000 8.273763
132.720000 7.977312
132.740000 7.548305
132.760000 7.206790
132.780000 6.966829
132.800000 6.814948
132.820000 6.692923
132.840000 6.603805
132.860000 6.420011
132.880000 6.252573
132.900000 6.024584
132.920000 5.732012
132.940000 5.427551
132.960000 5.210330
132.980000 5.105249
133.000000 4.948145
133.020000 4.841566
133.040000 4.696169
133.060000 4.488975
133.080000 4.142938
133.100000 3.639279
133.120000 3.114615
133.140000 2.625043
133.160000 2.091473
133.180000 1.652495
133.200000 1.412155
133.220000 1.238220
133.240000 1.063276
133.260000 0.894115
133.280000 0.767328
133.300000 0.610659
133.320000 0.345505
133.340000 0.140804
133.360000 0.034378
133.380000 -0.014816
133.400000 0.018694
133.420000 0.119939
133.440000 0.280795
133.460000 0.338083
133.480000 0.380906
133.500000 0.319893
133.520000 0.189886
133.540000 0.007814
133.560000 -0.177577
133.580000 -0.282826
133.600000 -0.350532
133.620000 -0.457518
133.640000 -0.502693
133.660000 -0.548428
133.680000 -0.758464
133.700000 -1.036795
133.720000 -1.317031
133.740000 -1.626421
133.760000 -1.992959
133.780000 -2.304688
133.800000 -2.521992
133.820000 -2.699961
133.840000 -2.890505
133.860000 -3.187726
133.880000 -3.455373
133.900000 -3.762186
133.920000 -4.272315
133.940000 -4.700790
133.960000 -5.153477
133.980000 -5.554869
134.000000 -5.843843
134.020000 -6.219497
134.040000 -6.425515
134.060000 -6.689828
134.080000 -7.033919
134.100000 -7.318915
134.120000 -7.751367
134.140000 -8.138168
134.160000 -8.474823
134.180000 -8.848615
134.200000 -8.993718
134.220000 -8.913969
134.240000 -8.688669
134.260000 -8.439857
134.280000 -8.320604
134.300000 -8.065519
134.320000 -7.825473
134.340000 -7.804972
134.360000 -7.793629
134.380000 -7.587066
134.400000 -6.938626
134.420000 -6.117231
134.440000 -5.296535
134.460000 -4.546025
134.480000 -3.958402
134.500000 -3.510924
134.520000 -3.227874
134.540000 -2.954374
134.560000 -2.665359
134.580000 -2.466049
134.600000 -2.234307
134.620000 -1.776509
134.640000 -1.094307
134.660000 -0.398172
134.680000 0.260729
134.700000 0.812993
134.720000 1.152141
134.740000 1.325629
134.760000 1.414368
134.780000 1.480898
134.800000 1.536169
134.820000 1.720103
134.840000 2.044225
134.860000 2.363376
134.880000 2.602848
134.900000 2.762906
134.920000 2.893740
134.940000 2.789821
134.960000 2.568469
134.980000 2.478526
135.000000 2.435437
135.020000 2.388330
135.040000 2.445324
135.060000 2.535043
135.080000 2.583859
135.100000 2.433575
135.120000 2.192997
135.140000 1.955430
135.160000 1.590852
135.180000 1.319957
135.200000 1.246552
135.220000 1.166887
135.240000 1.222354
135.260000 1.383281
135.280000 1.470662
135.300000 1.468169
135.320000 1.377987
135.340000 1.306542
135.360000 1.252573
135.380000 1.208953
135.400000 1.362093
135.420000 1.699617
135.440000 2.050303
135.460000 2.388134
135.480000 2.765861
135.500000 3.108411
135.520000 3.238376
135.540000 3.445864
135.560000 3.711172
135.580000 3.946289
135.600000 4.385140
135.620000 4.901052
135.640000 5.392234
135.660000 5.929977
135.680000 6.316372
135.700000 6.657228
135.720000 6.857672
135.740000 6.894557
135.760000 7.090170
135.780000 7.323592
135.800000 7.514584
135.820000 7.767779
135.840000 8.114601
135.860000 8.438120
135.880000 8.512058
135.900000 8.381155
135.920000 8.227370
135.940000 7.862666
135.960000 7.450603
135.980000 7.145624
136.000000 6.952755
136.020000 6.838726
136.040000 6.698902
136.060000 6.590082
136.080000 6.504116
136.100000 6.263916
136.120000 5.953531
136.140000 5.705363
136.160000 5.433992
136.180000 5.214504
136.200000 4.969473
136.220000 4.928261
136.240000 4.896361
136.260000 4.610482
136.280000 4.297717
136.300000 3.992360
136.320000 3.472625
136.340000 2.854502
136.360000 2.252750
136.380000 1.802345
136.400000 1.497618
136.420000 1.233024
136.440000 1.044763
136.460000 0.943883
136.480000 0.864778
136.500000 0.678015
136.520000 0.486561
136.540000 0.241810
136.560000 0.039980
136.580000 -0.041366
136.600000 -0.051378
136.620000 0.002115
136.640000 0.119701
136.660000 0.276678
136.680000 0.403423
136.700000 0.349972
136.720000 0.222836
136.740000 0.160997
136.760000 -0.052317
136.780000 -0.243294
136.800000 -0.360237
136.820000 -0.384672
136.840000 -0.387487
136.860000 -0.484839
136.880000 -0.622100
136.900000 -0.745511
136.920000 -1.016434
136.940000 -1.405770
136.960000 -1.778357
136.980000 -2.048734
137.000000 -2.299395
137.020000 -2.603842
137.040000 -2.778912
137.060000 -2.893740
137.080000 -3.163879
137.100000 -3.518752
137.120000 -3.931655
137.140000 -4.351462
137.160000 -4.739747
137.180000 -5.284856
137.200000 -5.645331
137.220000 -5.888528
137.240000 -6.157714
137.260000 -6.431998
137.280000 -6.722246
137.300000 -7.011976
137.320000 -7.377113
137.340000 -7.797438
137.360000 -8.190009
137.380000 -8.545974
137.400000 -8.893930
137.420000 -9.011082
137.440000 -8.780797
137.460000 -8.542193
137.480000 -8.393394
137.500000 -8.180052
137.520000 -7.898683
137.540000 -7.751199
137.560000 -7.764026
137.580000 -7.732617
137.600000 -7.336840
137.620000 -6.592309
137.640000 -5.881358
137.660000 -5.043466
137.680000 -4.252668
137.700000 -3.741629
137.720000 -3.354100
137.740000 -3.156401
137.760000 -2.833903
137.780000 -2.507359
137.800000 -2.400583
137.820000 -2.144405
137.840000 -1.536701
137.860000 -0.905052
137.880000 -0.269887
137.900000 0.385093
137.920000 0.870869
137.940000 1.191588
137.960000 1.289500
137.980000 1.395786
138.000000 1.492563
138.020000 1.538802
138.040000 1.797150
138.060000 2.139812
138.080000 2.450001
138.100000 2.613350
138.120000 2.803628
138.140000 2.889287
138.160000 2.686840
138.180000 2.556216
138.200000 2.478050
138.220000 2.433477
138.240000 2.410385
138.260000 2.456513
138.280000 2.552170
138.300000 2.526781
138.320000 2.269792
138.340000 2.107479
138.360000 1.816153
138.380000 1.385857
138.400000 1.265218
138.420000 1.138320
138.440000 1.118645
138.460000 1.240894
138.480000 1.313082
138.500000 1.442375
138.520000 1.352179
138.540000 1.301907
138.560000 1.240838
138.580000 1.176521
138.600000 1.197904
138.620000 1.427741
138.640000 1.745548
138.660000 2.071434
138.680000 2.473849
138.700000 2.833007
138.720000 3.124697
138.740000 3.254480
138.760000 3.535962
138.780000 3.815217
138.800000 4.095943
138.820000 4.608942
138.840000 5.114842
138.860000 5.698194
138.880000 6.106294
138.900000 6.505446
138.920000 6.854970
138.940000 6.913378
138.960000 7.075411
138.980000 7.217293
139.000000 7.419081
139.020000 7.667795
139.040000 7.935932
139.060000 8.199951
139.080000 8.503432
139.100000 8.500533
139.120000 8.377178
139.140000 8.192627
139.160000 7.666479
139.180000 7.477419
139.200000 7.091207
139.220000 6.808339
139.240000 6.781130
139.260000 6.599254
139.280000 6.500797
139.300000 6.297328
139.320000 6.028799
139.340000 5.816886
139.360000 5.548456
139.380000 5.263543
139.400000 5.119925
139.420000 5.005013
139.440000 4.910476
139.460000 4.833948
139.480000 4.555211
139.500000 4.293180
139.520000 3.856639
139.540000 3.339159
139.560000 2.794134
139.580000 2.130570
139.600000 1.806238
139.620000 1.485645
139.640000 1.238108
139.660000 1.069535
139.680000 0.904632
139.700000 0.860171
139.720000 0.690436
139.740000 0.352059
139.760000 0.206144
139.780000 0.108596
139.800000 -0.010236
139.820000 -0.002058
139.840000 0.049768
139.860000 0.271399
139.880000 0.377377
139.900000 0.339778
139.920000 0.353697
139.940000 0.271063
139.960000 0.088123
139.980000 -0.138171
140.000000 -0.251570
140.020000 -0.310973
140.040000 -0.398746
140.060000 -0.458232
140.080000 -0.531834
140.100000 -0.626035
140.120000 -0.925847
140.140000 -1.237267
140.160000 -1.513946
140.180000 -1.894151
140.200000 -2.272536
140.220000 -2.467897
140.240000 -2.625547
140.260000 -2.820656
140.280000 -3.082337
140.300000 -3.344004
140.320000 -3.526692
140.340000 -4.019344
140.360000 -4.543490
140.380000 -4.872905
140.400000 -5.259034
140.420000 -5.633190
140.440000 -6.002347
140.460000 -6.230574
140.480000 -6.374948
140.500000 -6.782390
140.520000 -7.164850
140.540000 -7.476887
140.560000 -7.914507
140.580000 -8.317888
140.600000 -8.712320
140.620000 -8.984924
140.640000 -8.933321
140.660000 -8.824263
140.680000 -8.547361
140.700000 -8.364617
140.720000 -8.216909
140.740000 -7.877524
140.760000 -7.821580
140.780000 -7.863548
140.800000 -7.773451
140.820000 -7.244067
140.840000 -6.492157
140.860000 -5.752345
140.880000 -4.899162
140.900000 -4.160652
140.920000 -3.656881
140.940000 -3.355991
140.960000 -3.125873
140.980000 -2.795408
141.000000 -2.511350
141.020000 -2.413396
141.040000 -2.010729
141.060000 -1.391178
141.080000 -0.775100
141.100000 -0.015656
141.120000 0.556326
141.140000 0.996564
141.160000 1.273522
141.180000 1.410713
141.200000 1.486541
141.220000 1.507518
141.240000 1.673920
141.260000 1.944213
141.280000 2.297826
141.300000 2.509277
141.320000 2.743273
141.340000 2.943802
141.360000 2.899929
141.380000 2.694528
141.400000 2.557645
141.420000 2.475683
141.440000 2.422092
141.460000 2.436656
141.480000 2.448587
141.500000 2.560684
141.520000 2.508255
141.540000 2.226437
141.560000 2.045136
141.580000 1.635957
141.600000 1.343301
141.620000 1.209457
141.640000 0.994911
141.660000 1.055616
141.680000 1.227675
141.700000 1.288310
141.720000 1.301851
141.740000 1.298504
141.760000 1.241650
141.780000 1.186015
141.800000 1.098788
141.820000 1.192793
141.840000 1.485939
141.860000 1.824765
141.880000 2.160495
141.900000 2.563260
141.920000 2.925233
141.940000 3.158263
141.960000 3.379544
141.980000 3.579036
142.000000 3.818732
142.020000 4.270397
142.040000 4.732256
142.060000 5.225468
142.080000 5.821269
142.100000 6.277639
142.120000 6.717849
142.140000 6.921248
142.160000 6.995452
142.180000 7.225331
142.200000 7.396802
142.220000 7.479520
142.240000 7.754434
142.260000 8.051628
142.280000 8.318378
142.300000 8.535444
142.320000 8.464937
142.340000 8.364309
142.360000 8.090291
142.380000 7.652826
142.400000 7.315429
142.420000 7.031566
142.440000 6.823308
142.460000 6.750981
142.480000 6.638170
142.500000 6.438412
142.520000 6.256382
142.540000 6.079393
142.560000 5.751155
142.580000 5.410887
142.600000 5.198862
142.620000 5.060929
142.640000 4.928793
142.660000 4.800424
142.680000 4.673623
142.700000 4.522653
142.720000 4.186334
142.740000 3.679426
142.760000 3.235268
142.780000 2.701823
142.800000 2.157639
142.820000 1.734303
142.840000 1.436633
142.860000 1.303839
142.880000 1.128363
142.900000 0.924264
142.920000 0.838186
142.940000 0.681138
142.960000 0.427817
142.980000 0.212151
143.000000 0.040554
143.020000 0.025318
143.040000 0.056504
143.060000 0.117236
143.080000 0.254875
143.100000 0.326699
143.120000 0.415522
143.140000 0.343727
143.160000 0.179481
143.180000 0.030163
143.200000 -0.165156
143.220000 -0.286229
143.240000 -0.375318
143.260000 -0.513517
143.280000 -0.504191
143.300000 -0.563593
143.320000 -0.762889
143.340000 -1.004279
143.360000 -1.354112
143.380000 -1.643239
143.400000 -1.940362
143.420000 -2.340859
143.440000 -2.548221
143.460000 -2.720322
143.480000 -2.883307
143.500000 -3.117990
143.520000 -3.434172
143.540000 -3.750760
143.560000 -4.157795
143.580000 -4.623645
143.600000 -5.075898
143.620000 -5.479643
143.640000 -5.797058
143.660000 -6.112035
143.680000 -6.342251
143.700000 -6.601061
143.720000 -6.972262
143.740000 -7.255032
143.760000 -7.635489
143.780000 -8.078556
143.800000 -8.465231
143.820000 -8.843952
143.840000 -8.913549
143.860000 -8.858838
143.880000 -8.771373
143.900000 -8.447685
143.920000 -8.210398
143.940000 -8.024027
143.960000 -7.859305
143.980000 -7.767625
144.000000 -7.681266
144.020000 -7.569254
144.040000 -6.981364
144.060000 -6.094307
144.080000 -5.356106
144.100000 -4.602136
144.120000 -3.993018
144.140000 -3.497733
144.160000 -3.274617
144.180000 -3.144092
144.200000 -2.685454
144.220000 -2.494042
144.240000 -2.424431
144.260000 -1.906922
144.280000 -1.185007
144.300000 -0.537099
144.320000 0.057316
144.340000 0.660693
144.360000 1.130436
144.380000 1.190678
144.400000 1.264980
144.420000 1.481318
144.440000 1.504886
144.460000 1.601089
144.480000 1.978298
144.500000 2.381777
144.520000 2.561160
144.540000 2.681533
144.560000 2.919674
144.580000 2.805490
144.600000 2.557267
144.620000 2.485640
144.640000 2.470824
144.660000 2.445646
144.680000 2.430032
144.700000 2.600229
144.720000 2.653778
144.740000 2.422078
144.760000 2.265759
144.780000 2.049463
144.800000 1.628339
144.820000 1.353915
144.840000 1.272850
144.860000 1.236777
144.880000 1.190622
144.900000 1.347516
144.920000 1.517251
144.940000 1.426761
144.960000 1.309077
144.980000 1.311191
145.000000 1.230686
145.020000 1.165654
145.040000 1.286055
145.060000 1.645564
145.080000 2.010155
145.100000 2.260087
145.120000 2.721568
145.140000 3.036182
145.160000 3.175697
145.180000 3.377416
145.200000 3.653646
145.220000 3.931375
145.240000 4.277188
145.260000 4.848371
145.280000 5.418196
145.300000 5.868643
145.320000 6.294471
145.340000 6.693777
145.360000 6.901209
145.380000 6.929482
145.400000 7.103264
145.420000 7.387266
145.440000 7.557589
145.460000 7.744618
145.480000 8.118564
145.500000 8.458495
145.520000 8.505000
145.540000 8.394948
145.560000 8.225899
145.580000 7.915683
145.600000 7.466651
145.620000 7.146632
145.640000 6.966171
145.660000 6.809571
145.680000 6.673710
145.700000 6.549430
145.720000 6.454151
145.740000 6.212005
145.760000 5.915540
145.780000 5.679527
145.800000 5.404767
145.820000 5.181021
145.840000 4.987313
145.860000 4.913599
145.880000 4.873620
145.900000 4.611939
145.920000 4.339545
145.940000 4.016586
145.960000 3.525852
145.980000 2.916649
146.000000 2.367913
146.020000 1.909499
146.040000 1.539208
146.060000 1.260331
146.080000 1.088720
146.100000 0.953573
146.120000 0.828089
146.140000 0.674696
146.160000 0.475078
146.180000 0.274102
146.200000 0.048424
146.220000 -0.049082
146.240000 -0.009438
146.260000 0.048214
146.280000 0.151825
146.300000 0.303439
146.320000 0.422538
146.340000 0.439720
146.360000 0.280880
146.380000 0.182226
146.400000 0.040456
146.420000 -0.174286
146.440000 -0.315874
146.460000 -0.394209
146.480000 -0.377041
146.500000 -0.436975
146.520000 -0.636411
146.540000 -0.792324
146.560000 -1.041906
146.580000 -1.404622
146.600000 -1.775263
146.620000 -2.127125
146.640000 -2.310906
146.660000 -2.536570
146.680000 -2.756255
146.700000 -2.888544
146.720000 -3.122233
146.740000 -3.416695
146.760000 -3.784662
146.780000 -4.261532
146.800000 -4.669983
146.820000 -5.126660
146.840000 -5.502175
146.860000 -5.765914
146.880000 -6.119541
146.900000 -6.331916
146.920000 -6.581148
146.940000 -6.961073
146.960000 -7.310191
146.980000 -7.746760
147.000000 -8.087266
147.020000 -8.443638
147.040000 -8.883441
147.060000 -8.983089
147.080000 -8.777100
147.100000 -8.592886
147.120000 -8.431469
147.140000 -8.175823
147.160000 -7.928286
147.180000 -7.753370
147.200000 -7.753468
147.220000 -7.735810
147.240000 -7.403034
147.260000 -6.761511
147.280000 -5.947552
147.300000 -5.153813
147.320000 -4.410864
147.340000 -3.787630
147.360000 -3.367081
147.380000 -3.208619
147.400000 -2.973153
147.420000 -2.529148
147.440000 -2.359049
147.460000 -2.229028
147.480000 -1.669075
147.500000 -0.969551
147.520000 -0.316434
147.540000 0.248952
147.560000 0.802449
147.580000 1.170093
147.600000 1.242393
147.620000 1.302075
147.640000 1.452541
147.660000 1.509283
147.680000 1.633675
147.700000 2.049505
147.720000 2.395780
147.740000 2.523967
147.760000 2.714160
147.780000 2.876992
147.800000 2.718656
147.820000 2.461232
147.840000 2.450505
147.860000 2.450505
147.880000 2.353658
147.900000 2.422848
147.920000 2.534959
147.940000 2.610171
147.960000 2.340747
147.980000 2.127475
148.000000 1.964504
148.020000 1.480296
148.040000 1.283689
148.060000 1.192289
148.080000 1.148962
148.100000 1.239648
148.120000 1.338596
148.140000 1.486177
148.160000 1.447528
148.180000 1.334731
148.200000 1.357318
148.220000 1.301319
148.240000 1.287357
148.260000 1.455986
148.280000 1.912482
148.300000 2.258925
148.320000 2.460784
148.340000 2.920472
148.360000 3.319904
148.380000 3.412704
148.400000 3.457347
148.420000 3.828590
148.440000 4.069266
148.460000 4.587223
148.480000 4.879277
148.500000 5.347844
148.520000 6.196994
148.540000 6.311051
148.560000 6.612908
148.580000 6.762072
148.600000 6.922564
148.620000 7.227907
148.640000 7.243437
148.660000 7.424053
148.680000 7.751437
148.700000 8.257911
148.720000 8.361018
148.740000 8.332227
148.760000 8.276494
148.780000 8.191143
148.800000 7.869150
148.820000 7.270506
148.840000 6.967767
148.860000 6.886323
148.880000 6.984851
148.900000 6.514898
148.920000 6.387986
148.940000 6.423400
148.960000 6.242855
148.980000 5.975054
149.000000 5.345141
149.020000 5.350490
149.040000 5.375472
149.060000 5.004005
149.080000 4.783172
149.100000 4.782654
149.120000 4.740546
149.140000 4.377060
149.160000 3.896801
149.180000 3.285932
149.200000 3.019392
149.220000 2.455840
149.240000 1.769717
149.260000 1.511285
149.280000 1.301921
149.300000 1.273438
149.320000 1.006142
149.340000 0.779763
149.360000 0.616792
149.380000 0.578423
149.400000 0.369549
149.420000 -0.091078
149.440000 -0.074358
149.460000 0.003277
149.480000 0.151978
149.500000 0.140986
149.520000 0.109534
149.540000 0.375052
149.560000 0.457280
149.580000 0.316084
149.600000 -0.436989
149.620000 0.284142
149.640000 -0.050580
149.660000 -1.164618
149.680000 0.461733
149.700000 -0.978191
149.720000 -0.394167
149.740000 -0.335521
149.760000 -1.695458
149.780000 -0.125596
149.800000 -1.907343
149.820000 -2.079458
149.840000 -1.947294
149.860000 -2.125403
149.880000 -2.667795
149.900000 -2.994956
149.920000 -2.893908
149.940000 -3.420224
149.960000 -2.600299
149.980000 -5.066348
150.000000 -4.190409
150.020000 -4.310698
150.040000 -5.620125
150.060000 -5.184802
150.080000 -6.781760
150.100000 -5.411979
150.120000 -6.614490
150.140000 -6.633605
150.160000 -7.294718
150.180000 -7.720588
150.200000 -6.785625
150.220000 -9.181741
150.240000 -8.182573
150.260000 -8.882223
150.280000 -9.251114
150.300000 -8.412508
150.320000 -8.616243
150.340000 -8.705879
150.360000 -8.125285
150.380000 -7.313566
150.400000 -8.398421
150.420000 -7.234335
150.440000 -8.102908
150.460000 -7.226479
150.480000 -5.951235
150.500000 -6.651683
150.520000 -4.774840
150.540000 -4.174193
150.560000 -3.418712
150.580000 -3.896311
150.600000 -3.026926
150.620000 -2.545434
150.640000 -2.745836
150.660000 -2.045906
150.680000 -2.665555
150.700000 -0.902489
150.720000 -0.932568
150.740000 -0.487443
150.760000 0.787549
150.780000 0.723204
150.800000 1.328933
150.820000 1.365734
150.840000 1.541827
150.860000 1.230308
150.880000 1.965274
150.900000 1.771776
150.920000 2.040094
150.940000 2.703658
150.960000 2.338716
150.980000 3.285414
151.000000 2.735194
151.020000 2.573189
151.040000 2.713754
151.060000 2.669014
151.080000 2.209913
151.100000 2.200825
151.120000 2.870872
151.140000 2.147164
151.160000 2.668902
151.180000 2.214058
151.200000 2.014384
151.220000 1.997790
151.240000 1.193675
151.260000 1.384387
151.280000 0.981062
151.300000 1.108647
151.320000 1.194319
151.340000 1.332042
151.360000 1.281476
151.380000 1.357934
151.400000 1.557482
151.420000 1.020621
151.440000 1.301431
151.460000 1.243765
151.480000 1.597196
151.500000 1.888788
151.520000 2.026301
151.540000 2.764951
151.560000 3.107053
151.580000 3.186816
151.600000 3.289895
151.620000 3.922371
151.640000 3.761990
151.660000 4.165917
151.680000 4.769182
151.700000 4.905715
151.720000 5.801371
151.740000 6.091548
151.760000 6.409355
151.780000 6.764312
151.800000 6.888662
151.820000 7.093699
151.840000 7.212000
151.860000 7.311452
151.880000 7.490863
151.900000 8.135816
151.920000 8.123815
151.940000 8.194686
151.960000 8.533413
151.980000 8.410184
152.000000 8.133897
152.020000 7.603786
152.040000 7.314952
152.060000 7.167455
152.080000 6.949647
152.100000 6.511075
152.120000 6.586581
152.140000 6.633829
152.160000 6.226975
152.180000 6.168217
152.200000 5.715880
152.220000 5.454115
152.240000 5.419275
152.260000 5.083236
152.280000 4.787709
152.300000 4.793296
152.320000 4.783774
152.340000 4.511254
152.360000 4.226048
152.380000 3.597325
152.400000 3.266089
152.420000 2.955284
152.440000 2.089554
152.460000 1.567243
152.480000 1.510291
152.500000 1.400561
152.520000 1.068037
152.540000 0.905612
152.560000 0.772832
152.580000 0.833340
152.600000 0.610911
152.620000 0.059710
152.640000 0.069709
152.660000 0.117768
152.680000 0.046729
152.700000 0.086429
152.720000 0.153351
152.740000 0.257760
152.760000 0.501432
152.780000 0.387991
152.800000 0.049208
152.820000 0.057848
152.840000 -0.117782
152.860000 -0.246613
152.880000 -0.364256
152.900000 -0.642026
152.920000 -0.501124
152.940000 -0.429497
152.960000 -0.745581
152.980000 -1.107498
153.000000 -1.199080
153.020000 -1.479246
153.040000 -1.898268
153.060000 -2.274917
153.080000 -2.629216
153.100000 -2.585988
153.120000 -2.801836
153.140000 -3.226194
153.160000 -3.396797
153.180000 -3.615669
153.200000 -4.060122
153.220000 -4.568794
153.240000 -5.006568
153.260000 -5.485063
153.280000 -5.674430
153.300000 -6.051261
153.320000 -6.426033
153.340000 -6.503177
153.360000 -6.897848
153.380000 -7.149685
153.400000 -7.535856
153.420000 -8.060702
153.440000 -8.346048
153.460000 -8.667215
153.480000 -8.999501
153.500000 -8.989867
153.520000 -8.678488
153.540000 -8.426106
153.560000 -8.226838
153.580000 -8.106129
153.600000 -7.823821
153.620000 -7.597568
153.640000 -7.711570
153.660000 -7.670792
153.680000 -7.075775
153.700000 -6.156552
153.720000 -5.496881
153.740000 -4.799108
153.760000 -4.038879
153.780000 -3.632403
153.800000 -3.297541
153.820000 -3.175529
153.840000 -2.818654
153.860000 -2.523393
153.880000 -2.472756
153.900000 -2.031216
153.920000 -1.348188
153.940000 -0.736311
153.960000 -0.056027
153.980000 0.624214
154.000000 0.964664
154.020000 1.170023
154.040000 1.357724
154.060000 1.460733
154.080000 1.506272
154.100000 1.624545
154.120000 2.025909
154.140000 2.475417
154.160000 2.580666
154.180000 2.785284
154.200000 3.049989
154.220000 2.919730
154.240000 2.647084
154.260000 2.566607
154.280000 2.515817
154.300000 2.476439
154.320000 2.471230
154.340000 2.560305
154.360000 2.674853
154.380000 2.536626
154.400000 2.294073
154.420000 2.082399
154.440000 1.662326
154.460000 1.373478
154.480000 1.270791
154.500000 1.129357
154.520000 1.130744
154.540000 1.308825
154.560000 1.437586
154.580000 1.344477
154.600000 1.288730
154.620000 1.281868
154.640000 1.207510
154.660000 1.163652
154.680000 1.237590
154.700000 1.668151
154.720000 2.001235
154.740000 2.269988
154.760000 2.747138
154.780000 3.065981
154.800000 3.211756
154.820000 3.420826
154.840000 3.627194
154.860000 3.870446
154.880000 4.306175
154.900000 4.758120
154.920000 5.295023
154.940000 5.813273
154.960000 6.216486
154.980000 6.663950
155.000000 6.810495
155.020000 6.881646
155.040000 7.060007
155.060000 7.282423
155.080000 7.425537
155.100000 7.619764
155.120000 8.024895
155.140000 8.270276
155.160000 8.429900
155.180000 8.315829
155.200000 8.160392
155.220000 7.905712
155.240000 7.420566
155.260000 7.109803
155.280000 6.938990
155.300000 6.770446
155.320000 6.673080
155.340000 6.599072
155.360000 6.447962
155.380000 6.275665
155.400000 6.013760
155.420000 5.714088
155.440000 5.449172
155.460000 5.214882
155.480000 5.078167
155.500000 4.954867
155.520000 4.893868
155.540000 4.720899
155.560000 4.407377
155.580000 4.142350
155.600000 3.609746
155.620000 3.055156
155.640000 2.551343
155.660000 1.988576
155.680000 1.649793
155.700000 1.423288
155.720000 1.204598
155.740000 1.111153
155.760000 0.952173
155.780000 0.800713
155.800000 0.625432
155.820000 0.357072
155.840000 0.133760
155.860000 0.035120
155.880000 0.003333
155.900000 0.027419
155.920000 0.134418
155.940000 0.232764
155.960000 0.354019
155.980000 0.369395
156.000000 0.205135
156.020000 0.083880
156.040000 -0.074022
156.060000 -0.246739
156.080000 -0.376522
156.100000 -0.484264
156.120000 -0.516556
156.140000 -0.496265
156.160000 -0.630600
156.180000 -0.837821
156.200000 -1.061245
156.220000 -1.362500
156.240000 -1.664580
156.260000 -2.045878
156.280000 -2.331406
156.300000 -2.461862
156.320000 -2.657895
156.340000 -2.841325
156.360000 -3.112388
156.380000 -3.367810
156.400000 -3.677326
156.420000 -4.196361
156.440000 -4.619472
156.460000 -5.033958
156.480000 -5.428237
156.500000 -5.706176
156.520000 -6.073008
156.540000 -6.271422
156.560000 -6.542429
156.580000 -6.901167
156.600000 -7.246336
156.620000 -7.684417
156.640000 -8.075881
156.660000 -8.420644
156.680000 -8.815609
156.700000 -9.016824
156.720000 -8.853544
156.740000 -8.638565
156.760000 -8.448819
156.780000 -8.265585
156.800000 -8.002532
156.820000 -7.789513
156.840000 -7.783729
156.860000 -7.786488
156.880000 -7.514977
156.900000 -6.851539
156.920000 -6.152253
156.940000 -5.325816
156.960000 -4.457496
156.980000 -3.962967
157.000000 -3.509510
157.020000 -3.212820
157.040000 -2.998443
157.060000 -2.622887
157.080000 -2.482083
157.100000 -2.249165
157.120000 -1.624489
157.140000 -1.185973
157.160000 -0.461649
157.180000 0.322876
157.200000 0.692200
157.220000 1.154410
157.240000 1.277149
157.260000 1.374122
157.280000 1.553435
157.300000 1.523146
157.320000 1.554808
157.340000 2.308217
157.360000 2.247806
157.380000 2.481172
157.400000 3.043086
157.420000 2.574799
157.440000 2.982493
157.460000 2.550377
157.480000 2.300165
157.500000 2.694150
157.520000 2.213064
157.540000 2.488762
157.560000 2.651229
157.580000 2.477910
157.600000 2.416631
157.620000 2.346880
157.640000 1.823560
157.660000 1.555788
157.680000 1.436871
157.700000 1.036193
157.720000 1.175233
157.740000 1.063052
157.760000 1.271968
157.780000 1.387986
157.800000 1.310015
157.820000 1.270427
157.840000 1.197064
157.860000 1.381124
157.880000 0.942581
157.900000 1.491190
157.920000 1.796142
157.940000 1.803073
157.960000 2.700969
157.980000 2.731525
158.000000 3.016465
158.020000 3.540807
158.040000 3.387764
158.060000 3.743940
158.080000 4.144940
158.100000 4.286360
158.120000 5.082760
158.140000 5.522269
158.160000 5.752513
158.180000 6.581484
158.200000 6.761567
158.220000 6.798158
158.240000 7.041999
158.260000 7.143117
158.280000 7.419656
158.300000 7.469073
158.320000 7.742083
158.340000 8.088148
158.360000 8.378298
158.380000 8.390551
158.400000 8.198467
158.420000 8.199475
158.440000 7.676715
158.460000 7.235483
158.480000 7.135989
158.500000 6.707150
158.520000 6.655198
158.540000 6.656962
158.560000 6.400617
158.580000 6.374752
158.600000 6.183410
158.620000 5.779259
158.640000 5.723204
158.660000 5.307640
158.680000 5.032334
158.700000 5.069653
158.720000 4.829901
158.740000 4.785664
158.760000 4.620159
158.780000 4.326480
158.800000 3.978384
158.820000 3.509748
158.840000 2.981429
158.860000 2.359329
158.880000 1.958413
158.900000 1.570982
158.920000 1.365062
158.940000 1.222872
158.960000 0.962997
158.980000 0.968963
159.000000 0.879117
159.020000 0.478397
159.040000 0.293777
159.060000 0.210975
159.080000 0.019423
159.100000 0.007982
159.120000 0.010292
159.140000 0.147862
159.160000 0.380472
159.180000 0.273038
159.200000 0.295219
159.220000 0.293497
159.240000 0.100404
159.260000 -0.186735
159.280000 -0.270321
159.300000 -0.353837
159.320000 -0.488115
159.340000 -0.509092
159.360000 -0.595031
159.380000 -0.639870
159.400000 -0.842429
159.420000 -1.206418
159.440000 -1.415236
159.460000 -1.736557
159.480000 -2.162330
159.500000 -2.383905
159.520000 -2.531543
159.540000 -2.759321
159.560000 -2.951490
159.580000 -3.189533
159.600000 -3.469656
159.620000 -3.821477
159.640000 -4.364751
159.660000 -4.735784
159.680000 -5.108260
159.700000 -5.525728
159.720000 -5.885643
159.740000 -6.071496
159.760000 -6.290564
159.780000 -6.679690
159.800000 -6.964224
159.820000 -7.303582
159.840000 -7.705660
159.860000 -8.139359
159.880000 -8.551478
159.900000 -8.811394
159.920000 -8.881355
159.940000 -8.793134
159.960000 -8.537110
159.980000 -8.273567
160.000000 -8.122835
160.020000 -7.883251
160.040000 -7.727015
160.060000 -7.797424
160.080000 -7.675819
160.100000 -7.268727
160.120000 -6.712766
160.140000 -5.994183
160.160000 -5.078783
160.180000 -4.320795
160.200000 -3.785012
160.220000 -3.447083
160.240000 -3.225675
160.260000 -2.845820
160.280000 -2.675021
160.300000 -2.465349
160.320000 -2.100897
160.340000 -1.644401
160.360000 -1.018703
160.380000 -0.296353
160.400000 0.454227
160.420000 0.874328
160.440000 1.138432
160.460000 1.366182
160.480000 1.456756
160.500000 1.492255
160.520000 1.534587
160.540000 1.800707
160.560000 2.147416
160.580000 2.395514
160.600000 2.637814
160.620000 2.803880
160.640000 2.833973
160.660000 2.733667
160.680000 2.589376
160.700000 2.396606
160.720000 2.438700
160.740000 2.415357
160.760000 2.479086
160.780000 2.567559
160.800000 2.521586
160.820000 2.442859
160.840000 2.159809
160.860000 1.813996
160.880000 1.491667
160.900000 1.292231
160.920000 1.109221
160.940000 1.074002
160.960000 1.185525
160.980000 1.266983
161.000000 1.334563
161.020000 1.305002
161.040000 1.273200
161.060000 1.174140
161.080000 1.122048
161.100000 1.234789
161.120000 1.379794
161.140000 1.727371
161.160000 2.144938
161.180000 2.587178
161.200000 2.919898
161.220000 3.207807
161.240000 3.436146
161.260000 3.694004
161.280000 3.866077
161.300000 4.143708
161.320000 4.698269
161.340000 5.130175
161.360000 5.631188
161.380000 6.119667
161.400000 6.518357
161.420000 6.815452
161.440000 6.927437
161.460000 7.073408
161.480000 7.177131
161.500000 7.395640
161.520000 7.600873
161.540000 7.873197
161.560000 8.123745
161.580000 8.341399
161.600000 8.504286
161.620000 8.323881
161.640000 8.007643
161.660000 7.670540
161.680000 7.351473
161.700000 7.009287
161.720000 6.757913
161.740000 6.652733
161.760000 6.617767
161.780000 6.506356
161.800000 6.210283
161.820000 6.090414
161.840000 5.822894
161.860000 5.495859
161.880000 5.261541
161.900000 5.061559
161.920000 4.942922
161.940000 4.836189
161.960000 4.733516
161.980000 4.560686
162.000000 4.261168
162.020000 3.875292
162.040000 3.398897
162.060000 2.883363
162.080000 2.345508
162.100000 1.851091
162.120000 1.570099
162.140000 1.431116
162.160000 1.199920
162.180000 1.058823
162.200000 0.972800
162.220000 0.801063
162.240000 0.629955
162.260000 0.293160
162.280000 0.107546
162.300000 0.100768
162.320000 0.045301
162.340000 0.047023
162.360000 0.158098
162.380000 0.304069
162.400000 0.421767
162.420000 0.307528
162.440000 0.136603
162.460000 0.081276
162.480000 -0.070941
162.500000 -0.299014
162.520000 -0.456342
162.540000 -0.473510
162.560000 -0.459983
162.580000 -0.572542
162.600000 -0.760187
162.620000 -0.940242
162.640000 -1.153233
162.660000 -1.489958
162.680000 -1.928642
162.700000 -2.215473
162.720000 -2.396844
162.740000 -2.625057
162.760000 -2.876039
162.780000 -3.064189
162.800000 -3.278874
162.820000 -3.552178
162.840000 -4.043360
162.860000 -4.562059
162.880000 -4.839367
162.900000 -5.305581
162.920000 -5.727195
162.940000 -6.002515
162.960000 -6.228655
162.980000 -6.426537
163.000000 -6.772392
163.020000 -7.146100
163.040000 -7.405904
163.060000 -7.817533
163.080000 -8.296266
163.100000 -8.625401
163.120000 -8.884604
163.140000 -8.894210
163.160000 -8.732359
163.180000 -8.557737
163.200000 -8.245742
163.220000 -8.065253
163.240000 -7.851365
163.260000 -7.745528
163.280000 -7.826565
163.300000 -7.650487
163.320000 -7.217769
163.340000 -6.451659
163.360000 -5.769541
163.380000 -4.888463
163.400000 -4.135810
163.420000 -3.705095
163.440000 -3.434312
163.460000 -3.194294
163.480000 -2.736020
163.500000 -2.556581
163.520000 -2.475851
163.540000 -2.023528
163.560000 -1.360007
163.580000 -0.786653
163.600000 -0.092282
163.620000 0.567150
163.640000 0.982014
163.660000 1.214148
163.680000 1.255836
163.700000 1.454348
163.720000 1.468449
163.740000 1.519127
163.760000 1.910073
163.780000 2.245132
163.800000 2.498004
163.820000 2.694906
163.840000 2.923021
163.860000 2.904816
163.880000 2.650795
163.900000 2.607189
163.920000 2.528896
163.940000 2.449007
163.960000 2.502710
163.980000 2.619722
164.000000 2.670428
164.020000 2.571480
164.040000 2.379396
164.060000 2.163534
164.080000 1.725523
164.100000 1.371784
164.120000 1.275637
164.140000 1.101575
164.160000 1.073008
164.180000 1.196728
164.200000 1.358943
164.220000 1.371924
164.240000 1.227213
164.260000 1.321414
164.280000 1.221094
164.300000 1.132312
164.320000 1.306976
164.340000 1.538970
164.360000 1.966759
164.380000 2.277129
164.400000 2.673901
164.420000 3.087700
164.440000 3.218044
164.460000 3.405731
164.480000 3.654192
164.500000 3.828674
164.520000 4.195703
164.540000 4.698816
164.560000 5.224530
164.580000 5.680648
164.600000 6.131598
164.620000 6.621016
164.640000 6.823182
164.660000 6.816363
164.680000 7.032799
164.700000 7.297504
164.720000 7.463822
164.740000 7.574631
164.760000 7.924729
164.780000 8.353848
164.800000 8.417844
164.820000 8.290595
164.840000 8.181677
164.860000 7.923609
164.880000 7.505258
164.900000 7.054140
164.920000 6.906152
164.940000 6.815200
164.960000 6.621744
164.980000 6.569945
165.000000 6.490714
165.020000 6.310407
165.040000 6.036599
165.060000 5.736227
165.080000 5.455739
165.100000 5.225454
165.120000 4.984386
165.140000 4.883380
165.160000 4.870819
165.180000 4.667224
165.200000 4.414211
165.220000 4.159560
165.240000 3.729405
165.260000 3.141361
165.280000 2.622046
165.300000 2.133077
165.320000 1.716575
165.340000 1.453843
165.360000 1.272598
165.380000 1.168133
165.400000 1.017233
165.420000 0.858504
165.440000 0.719409
165.460000 0.482892
165.480000 0.231420
165.500000 0.049306
165.520000 0.048116
165.540000 0.080561
165.560000 0.124616
165.580000 0.256122
165.600000 0.373106
165.620000 0.407960
165.640000 0.290626
165.660000 0.163139
165.680000 0.012183
165.700000 -0.164189
165.720000 -0.364508
165.740000 -0.370795
165.760000 -0.418337
165.780000 -0.508952
165.800000 -0.561899
165.820000 -0.724982
165.840000 -0.951991
165.860000 -1.318907
165.880000 -1.658755
165.900000 -1.957797
165.920000 -2.263378
165.940000 -2.536906
165.960000 -2.756871
165.980000 -2.862106
166.000000 -3.106997
166.020000 -3.446523
166.040000 -3.741980
166.060000 -4.192916
166.080000 -4.610356
166.100000 -5.037515
166.120000 -5.448248
166.140000 -5.713121
166.160000 -6.013606
166.180000 -6.257992
166.200000 -6.442711
166.220000 -6.813198
166.240000 -7.160509
166.260000 -7.473022
166.280000 -7.928524
166.300000 -8.296910
166.320000 -8.717053
166.340000 -8.914949
166.360000 -8.767606
166.380000 -8.593712
166.400000 -8.413068
166.420000 -8.226880
166.440000 -8.000781
166.460000 -7.812030
166.480000 -7.798881
166.500000 -7.757865
166.520000 -7.600663
166.540000 -6.990200
166.560000 -6.317199
166.580000 -5.568663
166.600000 -4.610650
166.620000 -4.024749
166.640000 -3.621775
166.660000 -3.298045
166.680000 -3.071302
166.700000 -2.685314
166.720000 -2.445030
166.740000 -2.312782
166.760000 -1.773372
166.780000 -1.168371
166.800000 -0.535797
166.820000 0.201410
166.840000 0.733594
166.860000 1.089448
166.880000 1.293477
166.900000 1.398880
166.920000 1.457764
166.940000 1.488236
166.960000 1.698020
166.980000 1.946314
167.000000 2.318565
167.020000 2.558191
167.040000 2.690103
167.060000 2.914927
167.080000 2.753202
167.100000 2.607567
167.120000 2.525241
167.140000 2.389688
167.160000 2.453978
167.180000 2.493649
167.200000 2.512260
167.220000 2.611740
167.240000 2.490807
167.260000 2.277325
167.280000 2.023108
167.300000 1.611367
167.320000 1.383771
167.340000 1.207496
167.360000 1.053375
167.380000 1.141232
167.400000 1.214876
167.420000 1.317549
167.440000 1.306920
167.460000 1.231120
167.480000 1.220393
167.500000 1.124484
167.520000 1.159269
167.540000 1.305394
167.560000 1.620596
167.580000 2.023865
167.600000 2.401997
167.620000 2.828974
167.640000 3.157913
167.660000 3.366465
167.680000 3.620668
167.700000 3.825622
167.720000 4.089445
167.740000 4.537623
167.760000 5.000602
167.780000 5.508196
167.800000 6.026377
167.820000 6.405028
167.840000 6.745800
167.860000 6.894067
167.880000 6.967921
167.900000 7.119353
167.920000 7.235735
167.940000 7.417303
167.960000 7.687064
167.980000 7.932417
168.000000 8.171734
168.020000 8.335378
168.040000 8.253864
168.060000 8.063138
168.080000 7.725881
168.100000 7.341615
168.120000 7.110335
168.140000 6.866005
168.160000 6.670475
168.180000 6.652159
168.200000 6.549290
168.220000 6.398810
168.240000 6.185567
168.260000 5.936643
168.280000 5.645709
168.300000 5.361973
168.320000 5.175588
168.340000 4.935879
168.360000 4.824118
168.380000 4.816850
168.400000 4.632748
168.420000 4.336002
168.440000 3.968764
168.460000 3.521973
168.480000 3.102236
168.500000 2.472224
168.520000 1.912958
168.540000 1.662844
168.560000 1.470269
168.580000 1.278325
168.600000 1.064312
168.620000 0.952005
168.640000 0.966946
168.660000 0.693601
168.680000 0.376859
168.700000 0.165464
168.720000 0.113637
168.740000 0.147119
168.760000 0.040260
168.780000 0.125890
168.800000 0.340828
168.820000 0.417104
168.840000 0.390932
168.860000 0.179775
168.880000 0.084468
168.900000 0.028287
168.920000 -0.260519
168.940000 -0.418168
168.960000 -0.480820
168.980000 -0.488745
169.000000 -0.465934
169.020000 -0.700714
169.040000 -0.897308
169.060000 -1.073176
169.080000 -1.375635
169.100000 -1.727861
169.120000 -2.175913
169.140000 -2.392657
169.160000 -2.498425
169.180000 -2.758271
169.200000 -2.957861
169.220000 -3.228966
169.240000 -3.470678
169.260000 -3.752944
169.280000 -4.362077
169.300000 -4.797693
169.320000 -5.130385
169.340000 -5.531022
169.360000 -5.830147
169.380000 -6.184769
169.400000 -6.362289
169.420000 -6.528397
169.440000 -6.949381
169.460000 -7.268139
169.480000 -7.660009
169.500000 -8.034291
169.520000 -8.325099
169.540000 -8.753546
169.560000 -8.910958
169.580000 -8.749107
169.600000 -8.525011
169.620000 -8.276550
169.640000 -8.155574
169.660000 -7.922278
169.680000 -7.645278
169.700000 -7.582193
169.720000 -7.669462
169.740000 -7.456470
169.760000 -6.693357
169.780000 -6.021111
169.800000 -5.271511
169.820000 -4.435524
169.840000 -3.832035
169.860000 -3.364085
169.880000 -3.180641
169.900000 -2.933019
169.920000 -2.473177
169.940000 -2.333493
169.960000 -2.175437
169.980000 -1.614742
170.000000 -1.067183
170.020000 -0.405537
170.040000 0.298090
170.060000 0.752177
170.080000 1.175835
170.100000 1.294331
170.120000 1.434141
170.140000 1.533985
170.160000 1.496484
170.180000 1.722666
170.200000 2.057249
170.220000 2.337344
170.240000 2.477644
170.260000 2.714455
170.280000 2.861560
170.300000 2.671856
170.320000 2.536906
170.340000 2.455994
170.360000 2.402109
170.380000 2.381707
170.400000 2.412234
170.420000 2.525423
170.440000 2.586646
170.460000 2.426433
170.480000 2.224841
170.500000 1.983185
170.520000 1.551615
170.540000 1.360945
170.560000 1.234789
170.580000 1.035829
170.600000 1.102345
170.620000 1.255892
170.640000 1.267193
170.660000 1.199668
170.680000 1.208392
170.700000 1.166662
170.720000 1.110313
170.740000 1.112848
170.760000 1.304624
170.780000 1.745310
170.800000 2.045780
170.820000 2.417835
170.840000 2.915543
170.860000 3.216573
170.880000 3.428038
170.900000 3.689271
170.920000 3.929513
170.940000 4.197257
170.960000 4.690372
170.980000 5.136799
171.000000 5.638988
171.020000 6.138250
171.040000 6.540622
171.060000 6.939970
171.080000 7.019635
171.100000 7.108781
171.120000 7.369047
171.140000 7.490863
171.160000 7.592387
171.180000 7.845512
171.200000 8.142551
171.220000 8.352980
171.240000 8.345306
171.260000 8.248529
171.280000 8.040621
171.300000 7.672094
171.320000 7.232361
171.340000 6.921514
171.360000 6.753319
171.380000 6.570295
171.400000 6.461881
171.420000 6.407884
171.440000 6.229846
171.460000 6.032692
171.480000 5.837555
171.500000 5.479993
171.520000 5.226868
171.540000 5.105249
171.560000 4.863579
171.580000 4.816332
171.600000 4.719625
171.620000 4.515553
171.640000 4.369344
171.660000 3.910972
171.680000 3.415463
171.700000 3.012936
171.720000 2.483357
171.740000 1.944956
171.760000 1.639906
171.780000 1.470241
171.800000 1.328569
171.820000 1.169659
171.840000 0.968809
171.860000 0.913006
171.880000 0.766390
171.900000 0.448444
171.920000 0.203287
171.940000 0.160157
171.960000 0.120289
171.980000 0.159484
172.000000 0.215008
172.020000 0.296563
172.040000 0.428657
172.060000 0.387711
172.080000 0.237735
172.100000 0.084174
172.120000 -0.120191
172.140000 -0.292964
172.160000 -0.390204
172.180000 -0.537407
172.200000 -0.613487
172.220000 -0.632112
172.240000 -0.710209
172.260000 -0.952019
172.280000 -1.266969
172.300000 -1.516901
172.320000 -1.812568
172.340000 -2.163086
172.360000 -2.482167
172.380000 -2.708727
172.400000 -2.771560
172.420000 -3.010444
172.440000 -3.320968
172.460000 -3.587746
172.480000 -3.946597
172.500000 -4.393178
172.520000 -4.871449
172.540000 -5.338685
172.560000 -5.675844
172.580000 -5.946964
172.600000 -6.272542
172.620000 -6.470297
172.640000 -6.745351
172.660000 -7.071308
172.680000 -7.383023
172.700000 -7.816749
172.720000 -8.203844
172.740000 -8.586640
172.760000 -8.897137
172.780000 -8.950434
172.800000 -8.795528
172.820000 -8.582257
172.840000 -8.341791
172.860000 -8.110316
172.880000 -7.897058
172.900000 -7.771392
172.920000 -7.753944
172.940000 -7.745332
172.960000 -7.387266
172.980000 -6.617767
173.000000 -5.793123
173.020000 -5.002843
173.040000 -4.258732
173.060000 -3.716213
173.080000 -3.324525
173.100000 -3.163094
173.120000 -2.836200
173.140000 -2.481382
173.160000 -2.403874
173.180000 -2.130892
173.200000 -1.479946
173.220000 -0.812405
173.240000 -0.149038
173.260000 0.489880
173.280000 0.999280
173.300000 1.266590
173.320000 1.292609
173.340000 1.408851
173.360000 1.496372
173.380000 1.510445
173.400000 1.760769
173.420000 2.183951
173.440000 2.488062
173.460000 2.641427
173.480000 2.849531
173.500000 2.942821
173.520000 2.698393
173.540000 2.523393
173.560000 2.493285
173.580000 2.468177
173.600000 2.448433
173.620000 2.537424
173.640000 2.672052
173.660000 2.640797
173.680000 2.373543
173.700000 2.190589
173.720000 1.857463
173.740000 1.412436
173.760000 1.253539
173.780000 1.125955
173.800000 1.099852
173.820000 1.166340
173.840000 1.286867
173.860000 1.406666
173.880000 1.256340
173.900000 1.196154
173.920000 1.200593
173.940000 1.091296
173.960000 1.173286
173.980000 1.425781
174.000000 1.865500
174.020000 2.243031
174.040000 2.612636
174.060000 3.066177
174.080000 3.342337
174.100000 3.447265
174.120000 3.728298
174.140000 3.985876
174.160000 4.273449
174.180000 4.742198
174.200000 5.280403
174.220000 5.836169
174.240000 6.227647
174.260000 6.595389
174.280000 6.912538
174.300000 6.965498
174.320000 7.021176
174.340000 7.178882
174.360000 7.389436
174.380000 7.583649
174.400000 7.786404
174.420000 8.140997
174.440000 8.366255
174.460000 8.269842
174.480000 8.159159
174.500000 7.886304
174.520000 7.467659
174.540000 7.121650
174.560000 6.856188
174.580000 6.743349
174.600000 6.635299
174.620000 6.538984
174.640000 6.506006
174.660000 6.330460
174.680000 6.074338
174.700000 5.777509
174.720000 5.521079
174.740000 5.268851
174.760000 5.062805
174.780000 4.927140
174.800000 4.914761
174.820000 4.792134
174.840000 4.522345
174.860000 4.244966
174.880000 3.823185
174.900000 3.289825
174.920000 2.706277
174.940000 2.197772
174.960000 1.785793
174.980000 1.481066
175.000000 1.306752
175.020000 1.153023
175.040000 1.014404
175.060000 0.892841
175.080000 0.726495
175.100000 0.494361
175.120000 0.205724
175.140000 0.064598
175.160000 0.020837
175.180000 0.049824
175.200000 0.098010
175.220000 0.234360
175.240000 0.391576
175.260000 0.409122
175.280000 0.310651
175.300000 0.158014
175.320000 0.038075
175.340000 -0.155115
175.360000 -0.334709
175.380000 -0.419317
175.400000 -0.421921
175.420000 -0.457308
175.440000 -0.566968
175.460000 -0.700785
175.480000 -0.936937
175.500000 -1.238248
175.520000 -1.570394
175.540000 -1.957335
175.560000 -2.247330
175.580000 -2.456274
175.600000 -2.652196
175.620000 -2.853620
175.640000 -3.087252
175.660000 -3.366815
175.680000 -3.671823
175.700000 -4.119734
175.720000 -4.672321
175.740000 -5.027839
175.760000 -5.421627
175.780000 -5.769779
175.800000 -6.075725
175.820000 -6.335207
175.840000 -6.465438
175.860000 -6.786619
175.880000 -7.197758
175.900000 -7.568063
175.920000 -7.904018
175.940000 -8.249439
175.960000 -8.696160
175.980000 -8.909348
176.000000 -8.806661
176.020000 -8.566797
176.040000 -8.393632
176.060000 -8.264941
176.080000 -7.988332
176.100000 -7.775705
176.120000 -7.709021
176.140000 -7.771350
176.160000 -7.691069
176.180000 -7.198122
176.200000 -6.363620
176.220000 -5.580523
176.240000 -4.844072
176.260000 -4.164097
176.280000 -3.665913
176.300000 -3.309458
176.320000 -3.134598
176.340000 -2.726988
176.360000 -2.392951
176.380000 -2.277788
176.400000 -1.843361
176.420000 -1.204892
176.440000 -0.519245
176.460000 0.091316
176.480000 0.631538
176.500000 1.114878
176.520000 1.232898
176.540000 1.306038
176.560000 1.468729
176.580000 1.468435
176.600000 1.606354
176.620000 1.934551
176.640000 2.293149
176.660000 2.572446
176.680000 2.674895
176.700000 2.874401
176.720000 2.900601
176.740000 2.592499
176.760000 2.499195
176.780000 2.501491
176.800000 2.404952
176.820000 2.420678
176.840000 2.488734
176.860000 2.585329
176.880000 2.459985
176.900000 2.209059
176.920000 2.006892
176.940000 1.635187
176.960000 1.323822
176.980000 1.168931
177.000000 1.117091
177.020000 1.114850
177.040000 1.207062
177.060000 1.374935
177.080000 1.362836
177.100000 1.245361
177.120000 1.266787
177.140000 1.174406
177.160000 1.170233
177.180000 1.283086
177.200000 1.569441
177.220000 2.056926
177.240000 2.349611
177.260000 2.761184
177.280000 3.199853
177.300000 3.391055
177.320000 3.589553
177.340000 3.856625
177.360000 4.106221
177.380000 4.511913
177.400000 4.996975
177.420000 5.507860
177.440000 6.004097
177.460000 6.409173
177.480000 6.760685
177.500000 6.942043
177.520000 7.010421
177.540000 7.107605
177.560000 7.278362
177.580000 7.505524
177.600000 7.625589
177.620000 7.927208
177.640000 8.231977
177.660000 8.297793
177.680000 8.242871
177.700000 8.022809
177.720000 7.720406
177.740000 7.342889
177.760000 6.979950
177.780000 6.777965
177.800000 6.676315
177.820000 6.542471
177.840000 6.501357
177.860000 6.400407
177.880000 6.180176
177.900000 5.954315
177.920000 5.641074
177.940000 5.385667
177.960000 5.167788
177.980000 4.928415
178.000000 4.848638
178.020000 4.837883
178.040000 4.623337
178.060000 4.351910
178.080000 4.060486
178.100000 3.635904
178.120000 3.096214
178.140000 2.539090
178.160000 2.029312
178.180000 1.710133
178.200000 1.457834
178.220000 1.244339
178.240000 1.096674
178.260000 0.967086
178.280000 0.854289
178.300000 0.670397
178.320000 0.412161
178.340000 0.204659
178.360000 0.097870
178.380000 0.104899
178.400000 0.126436
178.420000 0.161543
178.440000 0.343615
178.460000 0.435029
178.480000 0.445265
178.500000 0.305777
178.520000 0.139361
178.540000 0.057470
178.560000 -0.128537
178.580000 -0.342998
178.600000 -0.403535
178.620000 -0.427761
178.640000 -0.468385
178.660000 -0.597440
178.680000 -0.834264
178.700000 -1.059005
178.720000 -1.301711
178.740000 -1.703874
178.760000 -2.072204
178.780000 -2.306144
178.800000 -2.510187
178.820000 -2.706221
178.840000 -2.930092
178.860000 -3.190191
178.880000 -3.433457
178.900000 -3.781637
178.920000 -4.296541
178.940000 -4.726262
178.960000 -5.101720
178.980000 -5.516570
179.000000 -5.805852
179.020000 -6.109725
179.040000 -6.361799
179.060000 -6.575701
179.080000 -6.922284
179.100000 -7.285391
179.120000 -7.667809
179.140000 -8.041769
179.160000 -8.341203
179.180000 -8.750662
179.200000 -8.909600
179.220000 -8.780293
179.240000 -8.563184
179.260000 -8.349269
179.280000 -8.229190
179.300000 -7.923329
179.320000 -7.661536
179.340000 -7.711080
179.360000 -7.718095
179.380000 -7.530310
179.400000 -6.946132
179.420000 -6.179153
179.440000 -5.436863
179.460000 -4.617694
179.480000 -3.934316
179.500000 -3.512618
179.520000 -3.207639
179.540000 -2.981877
179.560000 -2.585414
179.580000 -2.310597
179.600000 -2.173645
179.620000 -1.701801
179.640000 -1.056470
179.660000 -0.417328
179.680000 0.246949
179.700000 0.799326
179.720000 1.172432
179.740000 1.362051
179.760000 1.426999
179.780000 1.489370
179.800000 1.512854
179.820000 1.624208
179.840000 1.942253
179.860000 2.285629
179.880000 2.447564
179.900000 2.671184
179.920000 2.867301
179.940000 2.749253
179.960000 2.564843
179.980000 2.466217