90 Deg Fixed Reg 7 13-Apr-2018
Time(s) LoadCell(N)
0.000000 -0.176820
0.020000 -0.185167
0.040000 -0.240130
0.060000 -0.193345
0.080000 -0.187001
0.100000 -0.168461
0.120000 -0.201144
0.140000 -0.232988
0.160000 -0.156432
0.180000 -0.197279
0.200000 -0.209868
0.220000 -0.192168
0.240000 -0.213691
0.260000 -0.201886
0.280000 -0.190222
0.300000 -0.252089
0.320000 -0.211535
0.340000 -0.228605
0.360000 -0.218845
0.380000 -0.213943
0.400000 -0.267492
0.420000 -0.208258
0.440000 -0.210919
0.460000 -0.252537
0.480000 -0.243617
0.500000 -0.231770
0.520000 -0.203847
0.540000 -0.243098
0.560000 -0.227429
0.580000 -0.213747
0.600000 -0.216016
0.620000 -0.213971
0.640000 -0.233758
0.660000 -0.211773
0.680000 -0.203819
0.700000 -0.233590
0.720000 -0.212277
0.740000 -0.204281
0.760000 -0.226547
0.780000 -0.199086
0.800000 -0.228507
0.820000 -0.212585
0.840000 -0.216646
0.860000 -0.230327
0.880000 -0.227625
0.900000 -0.243365
0.920000 -0.216408
0.940000 -0.248784
0.960000 -0.233422
0.980000 -0.233968
1.000000 -0.250954
1.020000 -0.226925
1.040000 -0.253503
1.060000 -0.247986
1.080000 -0.227471
1.100000 -0.238421
1.120000 -0.245031
1.140000 -0.221449
1.160000 -0.244947
1.180000 -0.218873
1.200000 -0.200724
1.220000 -0.229613
1.240000 -0.202363
1.260000 -0.232638
1.280000 -0.198890
1.300000 -0.179607
1.320000 -0.237553
1.340000 -0.211227
1.360000 -0.169175
1.380000 -0.201746
1.400000 -0.203973
1.420000 -0.213047
1.440000 -0.200486
1.460000 -0.191706
1.480000 -0.228801
1.500000 -0.231168
1.520000 -0.193779
1.540000 -0.197658
1.560000 -0.230649
1.580000 -0.202041
1.600000 -0.237567
1.620000 -0.207670
1.640000 -0.228619
1.660000 -0.248014
1.680000 -0.238155
1.700000 -0.258474
1.720000 -0.224712
1.740000 -0.238911
1.760000 -0.275796
1.780000 -0.249778
1.800000 -0.238911
1.820000 -0.263697
1.840000 -0.255015
1.860000 -0.257284
1.880000 -0.257942
1.900000 -0.230187
1.920000 -0.258712
1.940000 -0.265406
1.960000 -0.227933
1.980000 -0.244107
2.000000 -0.223396
2.020000 -0.259538
2.040000 -0.238953
2.060000 -0.226224
2.080000 -0.245241
2.100000 -0.246123
2.120000 -0.254805
2.140000 -0.228451
2.160000 -0.247608
2.180000 -0.264006
2.200000 -0.233142
2.220000 -0.221897
2.240000 -0.248252
2.260000 -0.247649
2.280000 -0.225132
2.300000 -0.227793
2.320000 -0.238799
2.340000 -0.239416
2.360000 -0.224712
2.380000 -0.228871
2.400000 -0.251626
2.420000 -0.215386
2.440000 -0.218032
2.460000 -0.244695
2.480000 -0.217234
2.500000 -0.226028
2.520000 -0.238939
2.540000 -0.222471
2.560000 -0.231504
2.580000 -0.220931
2.600000 -0.216940
2.620000 -0.251066
2.640000 -0.205065
2.660000 -0.203217
2.680000 -0.263669
2.700000 -0.238519
2.720000 -0.202531
2.740000 -0.211045
2.760000 -0.229081
2.780000 -0.244709
2.800000 -0.181596
2.820000 -0.186917
2.840000 -0.232652
2.860000 -0.209448
2.880000 -0.184956
2.900000 -0.155605
2.920000 -0.194003
2.940000 -0.193036
2.960000 -0.135623
2.980000 -0.158980
3.000000 -0.146601
3.020000 -0.150718
3.040000 -0.177815
3.060000 -0.082802
3.080000 -0.133102
3.100000 -0.148394
3.120000 -0.100628
3.140000 -0.124770
3.160000 -0.078125
3.180000 -0.082690
3.200000 -0.136729
3.220000 -0.068056
3.240000 -0.060705
3.260000 -0.095279
3.280000 -0.064500
3.300000 -0.074344
3.320000 -0.062721
3.340000 -0.051322
3.360000 -0.074652
3.380000 -0.061769
3.400000 -0.046197
3.420000 -0.044209
3.440000 -0.033384
3.460000 -0.034476
3.480000 -0.056448
3.500000 -0.006834
3.520000 -0.006526
3.540000 -0.058072
3.560000 0.003683
3.580000 -0.004691
3.600000 -0.005461
3.620000 0.014059
3.640000 -0.024884
3.660000 0.026662
3.680000 0.028231
3.700000 -0.029519
3.720000 0.008346
3.740000 0.051168
3.760000 -0.002773
3.780000 0.007226
3.800000 0.015362
3.820000 0.023092
3.840000 0.040162
3.860000 -0.005727
3.880000 0.042822
3.900000 0.020193
3.920000 0.039181
3.940000 0.036199
3.960000 -0.011679
3.980000 0.062847
4.000000 0.004817
4.020000 0.005405
4.040000 0.024086
4.060000 -0.038719
4.080000 0.018807
4.100000 -0.005881
4.120000 -0.046575
4.140000 -0.051322
4.160000 -0.064556
4.180000 -0.046225
4.200000 -0.086555
4.220000 -0.134754
4.240000 -0.091246
4.260000 -0.114744
4.280000 -0.155955
4.300000 -0.180069
4.320000 -0.181904
4.340000 -0.167214
4.360000 -0.210289
4.380000 -0.246851
4.400000 -0.234164
4.420000 -0.248630
4.440000 -0.257494
4.460000 -0.311617
4.480000 -0.337943
4.500000 -0.309586
4.520000 -0.372252
4.540000 -0.361511
4.560000 -0.412119
4.580000 -0.433922
4.600000 -0.406742
4.620000 -0.488507
4.640000 -0.493955
4.660000 -0.517634
4.680000 -0.553203
4.700000 -0.553581
4.720000 -0.609048
4.740000 -0.636033
4.760000 -0.632420
4.780000 -0.684330
4.800000 -0.699650
4.820000 -0.728427
4.840000 -0.789216
4.860000 -0.776151
4.880000 -0.815528
4.900000 -0.852805
4.920000 -0.856138
4.940000 -0.899702
4.960000 -0.903973
4.980000 -0.958320
5.000000 -0.959959
5.020000 -1.009573
5.040000 -1.014740
5.060000 -1.018913
5.080000 -1.056484
5.100000 -1.060531
5.120000 -1.073428
5.140000 -1.105048
5.160000 -1.097654
5.180000 -1.106798
5.200000 -1.139510
5.220000 -1.110971
5.240000 -1.114780
5.260000 -1.151301
5.280000 -1.100567
5.300000 -1.142227
5.320000 -1.114234
5.340000 -1.082068
5.360000 -1.088972
5.380000 -1.070025
5.400000 -1.062211
5.420000 -1.022232
5.440000 -1.038728
5.460000 -0.975657
5.480000 -0.976231
5.500000 -0.907236
5.520000 -0.881596
5.540000 -0.864148
5.560000 -0.809647
5.580000 -0.761629
5.600000 -0.708920
5.620000 -0.663101
5.640000 -0.615042
5.660000 -0.561759
5.680000 -0.478439
5.700000 -0.442520
5.720000 -0.390596
5.740000 -0.280025
5.760000 -0.256556
5.780000 -0.157440
5.800000 -0.097842
5.820000 -0.022223
5.840000 0.074764
5.860000 0.140440
5.880000 0.229249
5.900000 0.323380
5.920000 0.433362
5.940000 0.464058
5.960000 0.605954
5.980000 0.698880
6.000000 0.761447
6.020000 0.862873
6.040000 0.964006
6.060000 1.063598
6.080000 1.148178
6.100000 1.251579
6.120000 1.335683
6.140000 1.426985
6.160000 1.551181
6.180000 1.576877
6.200000 1.698468
6.220000 1.803297
6.240000 1.829666
6.260000 1.946650
6.280000 2.017997
6.300000 2.089358
6.320000 2.158857
6.340000 2.204690
6.360000 2.278404
6.380000 2.343449
6.400000 2.357257
6.420000 2.420608
6.440000 2.451457
6.460000 2.479660
6.480000 2.506154
6.500000 2.490653
6.520000 2.536220
6.540000 2.509333
6.560000 2.521656
6.580000 2.487950
6.600000 2.505146
6.620000 2.437888
6.640000 2.374215
6.660000 2.342931
6.680000 2.267859
6.700000 2.158885
6.720000 2.092481
6.740000 1.998238
6.760000 1.865150
6.780000 1.729850
6.800000 1.616969
6.820000 1.481864
6.840000 1.310197
6.860000 1.126739
6.880000 0.964804
6.900000 0.813133
6.920000 0.568271
6.940000 0.326390
6.960000 0.179649
6.980000 -0.072761
7.000000 -0.347998
7.020000 -0.584458
7.040000 -0.850522
7.060000 -1.085331
7.080000 -1.393419
7.100000 -1.702823
7.120000 -1.935937
7.140000 -2.258337
7.160000 -2.560530
7.180000 -2.817155
7.200000 -3.164915
7.220000 -3.416681
7.240000 -3.677788
7.260000 -3.974281
7.280000 -4.212857
7.300000 -4.483808
7.320000 -4.679883
7.340000 -4.854617
7.360000 -5.085785
7.380000 -5.216996
7.400000 -5.321657
7.420000 -5.416922
7.440000 -5.557544
7.460000 -5.645359
7.480000 -5.641788
7.500000 -5.740050
7.520000 -5.768113
7.540000 -5.782340
7.560000 -5.768253
7.580000 -5.707156
7.600000 -5.685423
7.620000 -5.610701
7.640000 -5.484951
7.660000 -5.390946
7.680000 -5.249624
7.700000 -5.105137
7.720000 -4.933554
7.740000 -4.770261
7.760000 -4.544498
7.780000 -4.320921
7.800000 -4.095046
7.820000 -3.824585
7.840000 -3.554376
7.860000 -3.272783
7.880000 -2.972761
7.900000 -2.678200
7.920000 -2.354498
7.940000 -2.035487
7.960000 -1.713102
7.980000 -1.345443
8.000000 -1.005526
8.020000 -0.645051
8.040000 -0.248896
8.060000 0.082438
8.080000 0.484082
8.100000 0.842345
8.120000 1.206894
8.140000 1.616745
8.160000 1.964980
8.180000 2.359441
8.200000 2.752628
8.220000 3.126364
8.240000 3.526076
8.260000 3.868094
8.280000 4.250316
8.300000 4.630157
8.320000 4.974066
8.340000 5.330451
8.360000 5.666714
8.380000 6.006156
8.400000 6.320293
8.420000 6.639192
8.440000 6.947672
8.460000 7.212168
8.480000 7.468975
8.500000 7.745052
8.520000 7.950677
8.540000 8.151261
8.560000 8.313743
8.580000 8.467780
8.600000 8.593516
8.620000 8.597577
8.640000 8.612714
8.660000 8.583027
8.680000 8.468284
8.700000 8.325645
8.720000 8.126363
8.740000 7.917713
8.760000 7.752432
8.780000 7.456961
8.800000 7.272676
8.820000 6.984109
8.840000 6.688288
8.860000 6.443313
8.880000 6.068051
8.900000 5.739574
8.920000 5.358850
8.940000 4.981558
8.960000 4.625998
8.980000 4.181881
9.000000 3.750424
9.020000 3.297149
9.040000 2.795282
9.060000 2.155972
9.080000 1.453899
9.100000 0.750384
9.120000 -0.035162
9.140000 -0.868545
9.160000 -1.682939
9.180000 -2.396144
9.200000 -3.064819
9.220000 -3.709240
9.240000 -4.314871
9.260000 -4.821023
9.280000 -5.347199
9.300000 -5.835063
9.320000 -6.327617
9.340000 -6.801155
9.360000 -7.168589
9.380000 -7.576521
9.400000 -7.915375
9.420000 -8.133547
9.440000 -8.390229
9.460000 -8.589861
9.480000 -8.904348
9.500000 -9.318148
9.520000 -9.502516
9.540000 -9.681395
9.560000 -9.925236
9.580000 -10.144040
9.600000 -10.185030
9.620000 -10.141360
9.640000 -10.138400
9.660000 -10.037290
9.680000 -9.849968
9.700000 -9.633448
9.720000 -9.526462
9.740000 -9.277244
9.760000 -8.927104
9.780000 -8.575171
9.800000 -8.273371
9.820000 -7.874611
9.840000 -7.409293
9.860000 -7.057865
9.880000 -6.521844
9.900000 -6.064144
9.920000 -5.631468
9.940000 -5.129153
9.960000 -4.612149
9.980000 -3.990553
10.000000 -3.489247
10.020000 -2.920122
10.040000 -2.260843
10.060000 -1.727175
10.080000 -1.250641
10.100000 -0.721565
10.120000 -0.204001
10.140000 0.247818
10.160000 0.750945
10.180000 1.287596
10.200000 1.836710
10.220000 2.375223
10.240000 2.837908
10.260000 3.376954
10.280000 3.798735
10.300000 4.148441
10.320000 4.582812
10.340000 4.938931
10.360000 5.287615
10.380000 5.717714
10.400000 6.170065
10.420000 6.585237
10.440000 6.980496
10.460000 7.316857
10.480000 7.727057
10.500000 7.996608
10.520000 8.216265
10.540000 8.558913
10.560000 8.810666
10.580000 9.098085
10.600000 9.380211
10.620000 9.660796
10.640000 9.947487
10.660000 10.114670
10.680000 10.282140
10.700000 10.352370
10.720000 10.349570
10.740000 10.307370
10.760000 10.237930
10.780000 10.145490
10.800000 9.953579
10.820000 9.714919
10.840000 9.562955
10.860000 9.345034
10.880000 9.023335
10.900000 8.719994
10.920000 8.432855
10.940000 8.160630
10.960000 7.834477
10.980000 7.471776
11.000000 7.180646
11.020000 6.860935
11.040000 6.473644
11.060000 5.973248
11.080000 5.467166
11.100000 4.843134
11.120000 4.123725
11.140000 3.326542
11.160000 2.480934
11.180000 1.717849
11.200000 0.860017
11.220000 0.018835
11.240000 -0.736535
11.260000 -1.550719
11.280000 -2.245090
11.300000 -2.936772
11.320000 -3.629000
11.340000 -4.240471
11.360000 -4.816794
11.380000 -5.373876
11.400000 -5.881106
11.420000 -6.420557
11.440000 -6.874210
11.460000 -7.255172
11.480000 -7.663272
11.500000 -7.989088
11.520000 -8.290693
11.540000 -8.445766
11.560000 -8.619310
11.580000 -8.864971
11.600000 -9.029749
11.620000 -9.369680
11.640000 -9.889135
11.660000 -10.017250
11.680000 -10.079100
11.700000 -10.291800
11.720000 -10.493140
11.740000 -10.525570
11.760000 -10.276340
11.780000 -10.101470
11.800000 -10.014960
11.820000 -9.724652
11.840000 -9.440649
11.860000 -9.241368
11.880000 -8.941219
11.900000 -8.508207
11.920000 -8.102292
11.940000 -7.703364
11.960000 -7.197772
11.980000 -6.781718
12.000000 -6.439028
12.020000 -5.878515
12.040000 -5.334036
12.060000 -4.919733
12.080000 -4.545143
12.100000 -3.955615
12.120000 -3.211280
12.140000 -2.727338
12.160000 -2.248198
12.180000 -1.583655
12.200000 -1.013550
12.220000 -0.653859
12.240000 -0.294351
12.260000 0.166850
12.280000 0.545291
12.300000 0.922108
12.320000 1.385955
12.340000 1.879448
12.360000 2.346320
12.380000 2.794638
12.400000 3.263779
12.420000 3.535304
12.440000 3.720974
12.460000 4.074069
12.480000 4.346519
12.500000 4.522835
12.520000 4.814637
12.540000 5.260379
12.560000 5.653831
12.580000 5.870911
12.600000 6.112679
12.620000 6.503303
12.640000 6.708341
12.660000 6.735493
12.680000 6.947826
12.700000 7.225583
12.720000 7.467393
12.740000 7.611586
12.760000 7.914507
12.780000 8.150813
12.800000 8.282375
12.820000 8.423375
12.840000 8.494974
12.860000 8.587718
12.880000 8.569892
12.900000 8.644950
12.920000 8.711914
12.940000 8.597675
12.960000 8.572875
12.980000 8.516189
13.000000 8.311712
13.020000 8.014449
13.040000 7.773983
13.060000 7.647406
13.080000 7.380880
13.100000 7.054980
13.120000 6.932086
13.140000 6.878187
13.160000 6.623872
13.180000 6.285201
13.200000 6.064606
13.220000 5.826171
13.240000 5.438851
13.260000 4.928723
13.280000 4.602794
13.300000 4.242432
13.320000 3.753980
13.340000 3.171762
13.360000 2.557505
13.380000 2.002005
13.400000 1.216738
13.420000 0.437941
13.440000 -0.345687
13.460000 -1.092585
13.480000 -1.686663
13.500000 -2.297476
13.520000 -2.842389
13.540000 -3.368006
13.560000 -3.740355
13.580000 -4.174740
13.600000 -4.754437
13.620000 -5.267268
13.640000 -5.690688
13.660000 -6.046906
13.680000 -6.462161
13.700000 -6.761609
13.720000 -6.897036
13.740000 -6.930882
13.760000 -7.120306
13.780000 -7.437286
13.800000 -7.679698
13.820000 -8.066569
13.840000 -8.665171
13.860000 -9.041708
13.880000 -9.175538
13.900000 -9.359864
13.920000 -9.562129
13.940000 -9.652492
13.960000 -9.688201
13.980000 -9.625704
14.000000 -9.689727
14.020000 -9.618912
14.040000 -9.555729
14.060000 -9.589925
14.080000 -9.361432
14.100000 -9.030029
14.120000 -8.664065
14.140000 -8.295888
14.160000 -7.846324
14.180000 -7.463710
14.200000 -7.265661
14.220000 -6.931652
14.240000 -6.468757
14.260000 -6.103297
14.280000 -5.716902
14.300000 -5.121983
14.320000 -4.255777
14.340000 -3.613975
14.360000 -3.066863
14.380000 -2.331897
14.400000 -1.773568
14.420000 -1.396234
14.440000 -0.941110
14.460000 -0.495733
14.480000 0.023526
14.500000 0.592398
14.520000 1.209737
14.540000 1.923236
14.560000 2.486578
14.580000 3.000893
14.600000 3.569794
14.620000 3.880221
14.640000 4.121373
14.660000 4.458112
14.680000 4.905645
14.700000 5.259020
14.720000 5.572780
14.740000 6.170793
14.760000 6.597882
14.780000 6.844859
14.800000 7.056730
14.820000 7.271794
14.840000 7.522846
14.860000 7.559759
14.880000 7.710169
14.900000 8.058727
14.920000 8.287710
14.940000 8.515069
14.960000 8.709646
14.980000 8.812066
15.000000 8.875123
15.020000 8.855169
15.040000 8.808369
15.060000 8.804056
15.080000 8.757509
15.100000 8.826518
15.120000 8.899573
15.140000 8.782953
15.160000 8.660214
15.180000 8.485284
15.200000 8.252380
15.220000 7.778380
15.240000 7.420314
15.260000 7.218455
15.280000 6.959533
15.300000 6.741641
15.320000 6.540580
15.340000 6.474316
15.360000 6.333835
15.380000 5.935845
15.400000 5.579263
15.420000 5.284002
15.440000 4.866170
15.460000 4.467774
15.480000 4.101264
15.500000 3.813607
15.520000 3.515783
15.540000 3.044234
15.560000 2.582837
15.580000 1.966913
15.600000 1.202805
15.620000 0.484068
15.640000 -0.363317
15.660000 -1.081354
15.680000 -1.727427
15.700000 -2.282577
15.720000 -2.736706
15.740000 -3.281675
15.760000 -3.730777
15.780000 -4.177932
15.800000 -4.776212
15.820000 -5.359634
15.840000 -5.893695
15.860000 -6.302369
15.880000 -6.601509
15.900000 -6.952153
15.920000 -7.057234
15.940000 -7.115068
15.960000 -7.388498
15.980000 -7.704680
16.000000 -8.127120
16.020000 -8.650636
16.040000 -9.292158
16.060000 -9.677460
16.080000 -9.814357
16.100000 -9.979821
16.120000 -10.172870
16.140000 -10.277920
16.160000 -10.234430
16.180000 -10.254880
16.200000 -10.295020
16.220000 -10.247380
16.240000 -10.222150
16.260000 -10.183110
16.280000 -9.929997
16.300000 -9.436042
16.320000 -9.008239
16.340000 -8.538623
16.360000 -8.004884
16.380000 -7.566299
16.400000 -7.338044
16.420000 -7.015939
16.440000 -6.456364
16.460000 -5.979689
16.480000 -5.521429
16.500000 -4.814259
16.520000 -3.861400
16.540000 -3.113424
16.560000 -2.511812
16.580000 -1.774030
16.600000 -1.227087
16.620000 -0.792366
16.640000 -0.388187
16.660000 0.110192
16.680000 0.657808
16.700000 1.209863
16.720000 1.881436
16.740000 2.548571
16.760000 3.061542
16.780000 3.443316
16.800000 3.910972
16.820000 4.202634
16.840000 4.315305
16.860000 4.592068
16.880000 5.006764
16.900000 5.304965
16.920000 5.617996
16.940000 6.036571
16.960000 6.396080
16.980000 6.601915
17.000000 6.627835
17.020000 6.787544
17.040000 6.947126
17.060000 6.974138
17.080000 7.174723
17.100000 7.436292
17.120000 7.708293
17.140000 7.949165
17.160000 8.115987
17.180000 8.254844
17.200000 8.255895
17.220000 8.297653
17.240000 8.349969
17.260000 8.398575
17.280000 8.502018
17.300000 8.662076
17.320000 8.830551
17.340000 8.847635
17.360000 8.720988
17.380000 8.648255
17.400000 8.458537
17.420000 8.042735
17.440000 7.808263
17.460000 7.630532
17.480000 7.501939
17.500000 7.375251
17.520000 7.195014
17.540000 7.174989
17.560000 6.984585
17.580000 6.588724
17.600000 6.206026
17.620000 5.813652
17.640000 5.407694
17.660000 4.980101
17.680000 4.576734
17.700000 4.232475
17.720000 3.825776
17.740000 3.248753
17.760000 2.602820
17.780000 1.849705
17.800000 0.967114
17.820000 0.148156
17.840000 -0.676741
17.860000 -1.444993
17.880000 -2.066113
17.900000 -2.516503
17.920000 -2.975113
17.940000 -3.448217
17.960000 -3.947885
17.980000 -4.438521
18.000000 -4.975298
18.020000 -5.605730
18.040000 -6.136485
18.060000 -6.520051
18.080000 -6.796968
18.100000 -7.058593
18.120000 -7.277703
18.140000 -7.360099
18.160000 -7.549425
18.180000 -7.874303
18.200000 -8.276984
18.220000 -8.865377
18.240000 -9.350496
18.260000 -9.554385
18.280000 -9.746105
18.300000 -9.980913
18.320000 -10.119310
18.340000 -10.088730
18.360000 -10.039780
18.380000 -10.122540
18.400000 -10.115360
18.420000 -9.979499
18.440000 -9.918136
18.460000 -9.794921
18.480000 -9.423229
18.500000 -8.921993
18.520000 -8.458215
18.540000 -8.077884
18.560000 -7.613098
18.580000 -7.234755
18.600000 -6.827481
18.620000 -6.384737
18.640000 -5.905612
18.660000 -5.366034
18.680000 -4.773467
18.700000 -3.939147
18.720000 -3.164971
18.740000 -2.576913
18.760000 -1.918909
18.780000 -1.325181
18.800000 -0.899646
18.820000 -0.566884
18.840000 -0.097575
18.860000 0.376032
18.880000 0.799004
18.900000 1.364180
18.920000 1.928278
18.940000 2.432175
18.960000 2.830234
18.980000 3.141823
19.000000 3.411248
19.020000 3.610838
19.040000 3.757341
19.060000 3.996071
19.080000 4.363211
19.100000 4.644973
19.120000 4.997437
19.140000 5.377223
19.160000 5.658074
19.180000 5.826367
19.200000 6.010833
19.220000 6.230490
19.240000 6.371728
19.260000 6.588500
19.280000 6.948414
19.300000 7.312964
19.320000 7.601111
19.340000 7.896974
19.360000 8.184449
19.380000 8.367487
19.400000 8.452586
19.420000 8.560790
19.440000 8.706355
19.460000 8.865237
19.480000 8.928910
19.500000 9.018280
19.520000 9.145164
19.540000 9.057881
19.560000 8.850884
19.580000 8.601358
19.600000 8.301840
19.620000 7.940483
19.640000 7.665415
19.660000 7.429780
19.680000 7.189020
19.700000 7.033471
19.720000 6.901223
19.740000 6.641194
19.760000 6.270231
19.780000 5.926981
19.800000 5.539214
19.820000 5.127949
19.840000 4.621517
19.860000 4.214579
19.880000 3.945364
19.900000 3.460120
19.920000 2.917447
19.940000 2.369104
19.960000 1.784099
19.980000 1.074408
20.000000 0.214084
20.020000 -0.461019
20.040000 -1.006674
20.060000 -1.587842
20.080000 -2.127938
20.100000 -2.496128
20.120000 -2.867749
20.140000 -3.337492
20.160000 -3.841361
20.180000 -4.392912
20.200000 -4.904315
20.220000 -5.409332
20.240000 -5.913187
20.260000 -6.243303
20.280000 -6.476095
20.300000 -6.719921
20.320000 -6.914008
20.340000 -7.100743
20.360000 -7.429220
20.380000 -7.815867
20.400000 -8.264003
20.420000 -8.828702
20.440000 -9.373433
20.460000 -9.653501
20.480000 -9.684924
20.500000 -9.818516
20.520000 -9.996569
20.540000 -10.126410
20.560000 -10.137410
20.580000 -10.067060
20.600000 -10.106680
20.620000 -9.989301
20.640000 -9.777290
20.660000 -9.622609
20.680000 -9.182987
20.700000 -8.649571
20.720000 -8.140731
20.740000 -7.577782
20.760000 -7.185015
20.780000 -6.822090
20.800000 -6.466362
20.820000 -6.041934
20.840000 -5.509400
20.860000 -4.997381
20.880000 -4.423859
20.900000 -3.639769
20.920000 -2.856729
20.940000 -2.204438
20.960000 -1.649358
20.980000 -1.056400
21.000000 -0.620573
21.020000 -0.260323
21.040000 0.157216
21.060000 0.558384
21.080000 1.037803
21.100000 1.569861
21.120000 2.057627
21.140000 2.534231
21.160000 2.940973
21.180000 3.255419
21.200000 3.612939
21.220000 3.808369
21.240000 3.968162
21.260000 4.332936
21.280000 4.651064
21.300000 4.927981
21.320000 5.294673
21.340000 5.659881
21.360000 5.985725
21.380000 6.156692
21.400000 6.346634
21.420000 6.567887
21.440000 6.840014
21.460000 7.060161
21.480000 7.331308
21.500000 7.724523
21.520000 8.036392
21.540000 8.287150
21.560000 8.513683
21.580000 8.631213
21.600000 8.757103
21.620000 8.887769
21.640000 8.954397
21.660000 9.056789
21.680000 9.144716
21.700000 9.268576
21.720000 9.307295
21.740000 9.139829
21.760000 8.945854
21.780000 8.754414
21.800000 8.367992
21.820000 7.988346
21.840000 7.677836
21.860000 7.437594
21.880000 7.249053
21.900000 6.977975
21.920000 6.754944
21.940000 6.550215
21.960000 6.210241
21.980000 5.779553
22.000000 5.373638
22.020000 5.000868
22.040000 4.577364
22.060000 4.191446
22.080000 3.806619
22.100000 3.403644
22.120000 2.913358
22.140000 2.368571
22.160000 1.729052
22.180000 0.984409
22.200000 0.256192
22.220000 -0.528473
22.240000 -1.138026
22.260000 -1.804362
22.280000 -2.356318
22.300000 -2.731189
22.320000 -3.249509
22.340000 -3.747861
22.360000 -4.247347
22.380000 -4.794907
22.400000 -5.327035
22.420000 -5.883402
22.440000 -6.369487
22.460000 -6.637596
22.480000 -6.927185
22.500000 -7.250523
22.520000 -7.318131
22.540000 -7.517203
22.560000 -7.863576
22.580000 -8.236304
22.600000 -8.786790
22.620000 -9.295673
22.640000 -9.723503
22.660000 -9.936355
22.680000 -10.074820
22.700000 -10.235540
22.720000 -10.401490
22.740000 -10.453620
22.760000 -10.350000
22.780000 -10.355870
22.800000 -10.307790
22.820000 -10.203130
22.840000 -10.080170
22.860000 -9.773551
22.880000 -9.357988
22.900000 -8.905175
22.920000 -8.364883
22.940000 -7.843832
22.960000 -7.465643
22.980000 -7.082693
23.000000 -6.641461
23.020000 -6.168679
23.040000 -5.630782
23.060000 -5.126940
23.080000 -4.434628
23.100000 -3.626536
23.120000 -2.939741
23.140000 -2.320904
23.160000 -1.655492
23.180000 -1.146792
23.200000 -0.773728
23.220000 -0.300918
23.240000 0.056392
23.260000 0.541622
23.280000 1.063542
23.300000 1.528467
23.320000 2.111456
23.340000 2.571676
23.360000 2.912882
23.380000 3.326080
23.400000 3.561000
23.420000 3.719938
23.440000 4.011250
23.460000 4.294524
23.480000 4.592684
23.500000 4.948650
23.520000 5.340968
23.540000 5.691920
23.560000 5.943155
23.580000 6.173034
23.600000 6.409271
23.620000 6.637764
23.640000 6.786605
23.660000 7.084317
23.680000 7.478064
23.700000 7.740823
23.720000 8.084549
23.740000 8.371913
23.760000 8.581221
23.780000 8.729208
23.800000 8.842272
23.820000 8.955993
23.840000 9.071213
23.860000 9.130769
23.880000 9.218402
23.900000 9.353548
23.920000 9.268464
23.940000 9.141594
23.960000 8.960698
23.980000 8.706677
24.000000 8.335868
24.020000 7.998247
24.040000 7.800799
24.060000 7.537214
24.080000 7.329642
24.100000 7.168603
24.120000 6.949605
24.140000 6.743643
24.160000 6.333372
24.180000 5.961205
24.200000 5.623822
24.220000 5.144165
24.240000 4.733250
24.260000 4.376528
24.280000 3.924401
24.300000 3.458887
24.320000 2.889006
24.340000 2.302055
24.360000 1.646222
24.380000 0.837135
24.400000 0.142792
24.420000 -0.520631
24.440000 -1.168945
24.460000 -1.691481
24.480000 -2.148102
24.500000 -2.550461
24.520000 -3.002070
24.540000 -3.457627
24.560000 -3.947591
24.580000 -4.511605
24.600000 -5.006652
24.620000 -5.509470
24.640000 -5.927751
24.660000 -6.236945
24.680000 -6.540622
24.700000 -6.731068
24.720000 -6.917145
24.740000 -7.234055
24.760000 -7.528406
24.780000 -7.918315
24.800000 -8.518752
24.820000 -9.036008
24.840000 -9.282145
24.860000 -9.504505
24.880000 -9.808434
24.900000 -10.048910
24.920000 -10.095100
24.940000 -10.002240
24.960000 -10.064300
24.980000 -10.136900
25.000000 -9.982888
25.020000 -9.877975
25.040000 -9.759604
25.060000 -9.370367
25.080000 -8.989307
25.100000 -8.591723
25.120000 -8.207317
25.140000 -7.871054
25.160000 -7.464900
25.180000 -7.025867
25.200000 -6.623046
25.220000 -6.062295
25.240000 -5.567094
25.260000 -4.947081
25.280000 -4.181097
25.300000 -3.547557
25.320000 -2.933551
25.340000 -2.411380
25.360000 -1.863456
25.380000 -1.388448
25.400000 -1.060657
25.420000 -0.626539
25.440000 -0.167452
25.460000 0.323002
25.480000 0.850032
25.500000 1.324326
25.520000 1.806462
25.540000 2.261670
25.560000 2.552450
25.580000 2.819774
25.600000 3.062676
25.620000 3.287682
25.640000 3.608373
25.660000 3.924807
25.680000 4.259698
25.700000 4.685960
25.720000 5.059388
25.740000 5.352353
25.760000 5.610309
25.780000 5.867452
25.800000 6.098340
25.820000 6.349896
25.840000 6.579426
25.860000 6.924805
25.880000 7.323789
25.900000 7.627087
25.920000 7.921690
25.940000 8.153068
25.960000 8.364911
25.980000 8.567049
26.000000 8.619842
26.020000 8.729194
26.040000 8.889715
26.060000 8.944384
26.080000 9.021081
26.100000 8.988803
26.120000 8.918254
26.140000 8.754737
26.160000 8.491949
26.180000 8.215831
26.200000 7.900391
26.220000 7.689865
26.240000 7.482013
26.260000 7.293765
26.280000 7.164682
26.300000 6.978536
26.320000 6.793887
26.340000 6.535049
26.360000 6.142507
26.380000 5.812895
26.400000 5.488773
26.420000 5.041254
26.440000 4.678931
26.460000 4.242950
26.480000 3.823745
26.500000 3.322061
26.520000 2.643079
26.540000 2.033135
26.560000 1.317647
26.580000 0.611149
26.600000 -0.114716
26.620000 -0.715908
26.640000 -1.187541
26.660000 -1.699042
26.680000 -2.110279
26.700000 -2.489813
26.720000 -2.920234
26.740000 -3.405801
26.760000 -3.911224
26.780000 -4.377032
26.800000 -4.796741
26.820000 -5.244457
26.840000 -5.514652
26.860000 -5.681502
26.880000 -5.935341
26.900000 -6.088720
26.920000 -6.303041
26.940000 -6.582842
26.960000 -6.943961
26.980000 -7.453824
27.000000 -7.945538
27.020000 -8.430419
27.040000 -8.677844
27.060000 -8.819894
27.080000 -9.051230
27.100000 -9.292732
27.120000 -9.414967
27.140000 -9.450522
27.160000 -9.523493
27.180000 -9.556765
27.200000 -9.475546
27.220000 -9.335022
27.240000 -9.163481
27.260000 -8.760562
27.280000 -8.324525
27.300000 -7.940553
27.320000 -7.625351
27.340000 -7.362746
27.360000 -7.045206
27.380000 -6.639290
27.400000 -6.257978
27.420000 -5.797996
27.440000 -5.240746
27.460000 -4.624822
27.480000 -3.830089
27.500000 -3.177812
27.520000 -2.645208
27.540000 -2.052950
27.560000 -1.637512
27.580000 -1.263762
27.600000 -0.891398
27.620000 -0.558342
27.640000 -0.060453
27.660000 0.360447
27.680000 0.871247
27.700000 1.391038
27.720000 1.781424
27.740000 2.183405
27.760000 2.508045
27.780000 2.702720
27.800000 2.880969
27.820000 3.148041
27.840000 3.474865
27.860000 3.798651
27.880000 4.111528
27.900000 4.537581
27.920000 4.925460
27.940000 5.127683
27.960000 5.351666
27.980000 5.575902
28.000000 5.836407
28.020000 6.034527
28.040000 6.297160
28.060000 6.714810
28.080000 7.065707
28.100000 7.387140
28.120000 7.635686
28.140000 7.878616
28.160000 8.061444
28.180000 8.147088
28.200000 8.279728
28.220000 8.383885
28.240000 8.536326
28.260000 8.656531
28.280000 8.677284
28.300000 8.678488
28.320000 8.594888
28.340000 8.381547
28.360000 8.111562
28.380000 7.787930
28.400000 7.540603
28.420000 7.346068
28.440000 7.127629
28.460000 6.953470
28.480000 6.862630
28.500000 6.705988
28.520000 6.474694
28.540000 6.104796
28.560000 5.839124
28.580000 5.493633
28.600000 5.047723
28.620000 4.731751
28.640000 4.344334
28.660000 4.027760
28.680000 3.571727
28.700000 3.018328
28.720000 2.468443
28.740000 1.794013
28.760000 1.061707
28.780000 0.333714
28.800000 -0.303439
28.820000 -0.901075
28.840000 -1.364110
28.860000 -1.779198
28.880000 -2.184525
28.900000 -2.526627
28.920000 -2.969344
28.940000 -3.377850
28.960000 -3.874927
28.980000 -4.342612
29.000000 -4.704613
29.020000 -4.993894
29.040000 -5.216562
29.060000 -5.414724
29.080000 -5.484418
29.100000 -5.695827
29.120000 -5.886217
29.140000 -6.253105
29.160000 -6.701059
29.180000 -7.094091
29.200000 -7.719258
29.220000 -8.197921
29.240000 -8.334075
29.260000 -8.451018
29.280000 -8.678348
29.300000 -8.872197
29.320000 -9.004333
29.340000 -9.147909
29.360000 -9.257177
29.380000 -9.318610
29.400000 -9.184486
29.420000 -9.098141
29.440000 -8.950420
29.460000 -8.462640
29.480000 -7.945874
29.500000 -7.579182
29.520000 -7.279608
29.540000 -6.926387
29.560000 -6.766146
29.580000 -6.461195
29.600000 -6.008690
29.620000 -5.609945
29.640000 -5.073154
29.660000 -4.452006
29.680000 -3.646196
29.700000 -2.887508
29.720000 -2.420902
29.740000 -1.898814
29.760000 -1.319397
29.780000 -1.100483
29.800000 -0.817321
29.820000 -0.333392
29.840000 0.054179
29.860000 0.516178
29.880000 1.027553
29.900000 1.526297
29.920000 1.932689
29.940000 2.244572
29.960000 2.505776
29.980000 2.767695
30.000000 2.901722
30.020000 3.064049
30.040000 3.513641
30.060000 3.803580
30.080000 4.079993
30.100000 4.518158
30.120000 4.862403
30.140000 5.085182
30.160000 5.187715
30.180000 5.431276
30.200000 5.699650
30.220000 5.914098
30.240000 6.168287
30.260000 6.596426
30.280000 7.017521
30.300000 7.260801
30.320000 7.552646
30.340000 7.752067
30.360000 7.875087
30.380000 7.952078
30.400000 8.079312
30.420000 8.197585
30.440000 8.272769
30.460000 8.444324
30.480000 8.525165
30.500000 8.497523
30.520000 8.296000
30.540000 8.084970
30.560000 7.907827
30.580000 7.495106
30.600000 7.203696
30.620000 7.032252
30.640000 6.945796
30.660000 6.797360
30.680000 6.609743
30.700000 6.521284
30.720000 6.321792
30.740000 5.964398
30.760000 5.565988
30.780000 5.280081
30.800000 4.880453
30.820000 4.500668
30.840000 4.222925
30.860000 3.872071
30.880000 3.475033
30.900000 2.904508
30.920000 2.392643
30.940000 1.707024
30.960000 0.933394
30.980000 0.226798
31.000000 -0.381144
31.020000 -0.817503
31.040000 -1.413234
31.060000 -1.727749
31.080000 -1.997314
31.100000 -2.384885
31.120000 -2.815853
31.140000 -3.286716
31.160000 -3.671249
31.180000 -4.145501
31.200000 -4.581369
31.220000 -4.827913
31.240000 -4.941494
31.260000 -5.185376
31.280000 -5.346121
31.300000 -5.449270
31.320000 -5.763772
31.340000 -6.146203
31.360000 -6.656878
31.380000 -7.115474
31.400000 -7.701669
31.420000 -8.189687
31.440000 -8.263260
31.460000 -8.410156
31.480000 -8.635372
31.500000 -8.864985
31.520000 -8.991729
31.540000 -9.131399
31.560000 -9.296821
31.580000 -9.265845
31.600000 -9.168242
31.620000 -9.092078
31.640000 -8.858263
31.660000 -8.299389
31.680000 -7.850553
31.700000 -7.516881
31.720000 -7.229042
31.740000 -6.974082
31.760000 -6.741977
31.780000 -6.465984
31.800000 -6.018423
31.820000 -5.548764
31.840000 -5.050524
31.860000 -4.263787
31.880000 -3.507955
31.900000 -2.869024
31.920000 -2.343169
31.940000 -1.825297
31.960000 -1.412968
31.980000 -1.173146
32.000000 -0.869273
32.020000 -0.372097
32.040000 0.032950
32.060000 0.458022
32.080000 1.048334
32.100000 1.469485
32.120000 1.849747
32.140000 2.139938
32.160000 2.345508
32.180000 2.580134
32.200000 2.687106
32.220000 2.951742
32.240000 3.350515
32.260000 3.650454
32.280000 4.000762
32.300000 4.440579
32.320000 4.724736
32.340000 4.886223
32.360000 5.117334
32.380000 5.310160
32.400000 5.583534
32.420000 5.839740
32.440000 6.185371
32.460000 6.661205
32.480000 7.033793
32.500000 7.329054
32.520000 7.597428
32.540000 7.802186
32.560000 7.893053
32.580000 8.025441
32.600000 8.145772
32.620000 8.258163
32.640000 8.426540
32.660000 8.556337
32.680000 8.595980
32.700000 8.539897
32.720000 8.358525
32.740000 8.170838
32.760000 7.876669
32.780000 7.540673
32.800000 7.329964
32.820000 7.217139
32.840000 7.086922
32.860000 6.963132
32.880000 6.886463
32.900000 6.697348
32.920000 6.463604
32.940000 6.096646
32.960000 5.720431
32.980000 5.386241
33.000000 5.013303
33.020000 4.655881
33.040000 4.297101
33.060000 3.922805
33.080000 3.410730
33.100000 2.907351
33.120000 2.246476
33.140000 1.497506
33.160000 0.800558
33.180000 0.114884
33.200000 -0.440826
33.220000 -0.945703
33.240000 -1.327841
33.260000 -1.685949
33.280000 -2.006822
33.300000 -2.345886
33.320000 -2.869598
33.340000 -3.342870
33.360000 -3.798035
33.380000 -4.234366
33.400000 -4.647199
33.420000 -4.906527
33.440000 -5.087787
33.460000 -5.236685
33.480000 -5.411755
33.500000 -5.691458
33.520000 -5.960715
33.540000 -6.347446
33.560000 -6.882444
33.580000 -7.426993
33.600000 -7.946434
33.620000 -8.245742
33.640000 -8.411038
33.660000 -8.584750
33.680000 -8.846361
33.700000 -9.046399
33.720000 -9.123235
33.740000 -9.205421
33.760000 -9.296205
33.780000 -9.346813
33.800000 -9.167738
33.820000 -9.002470
33.840000 -8.699549
33.860000 -8.230142
33.880000 -7.811302
33.900000 -7.462422
33.920000 -7.278208
33.940000 -7.049673
33.960000 -6.693329
33.980000 -6.277429
34.000000 -5.908342
34.020000 -5.392906
34.040000 -4.715283
34.060000 -4.028292
34.080000 -3.318336
34.100000 -2.752684
34.120000 -2.221368
34.140000 -1.769269
34.160000 -1.451309
34.180000 -1.075823
34.200000 -0.718723
34.220000 -0.329961
34.240000 0.147595
34.260000 0.632238
34.280000 1.075977
34.300000 1.517265
34.320000 1.838124
34.340000 2.112702
34.360000 2.342959
34.380000 2.482209
34.400000 2.734241
34.420000 3.023551
34.440000 3.354562
34.460000 3.713091
34.480000 4.067544
34.500000 4.428018
34.520000 4.670249
34.540000 4.901640
34.560000 5.129419
34.580000 5.329513
34.600000 5.604497
34.620000 5.938464
34.640000 6.277387
34.660000 6.687392
34.680000 7.050933
34.700000 7.336196
34.720000 7.613210
34.740000 7.738036
34.760000 7.916859
34.780000 8.106059
34.800000 8.192613
34.820000 8.383983
34.840000 8.510910
34.860000 8.595868
34.880000 8.629294
34.900000 8.517127
34.920000 8.354128
34.940000 8.172589
34.960000 7.853662
34.980000 7.627003
35.000000 7.498088
35.020000 7.330104
35.040000 7.211608
35.060000 7.103754
35.080000 6.976127
35.100000 6.770516
35.120000 6.474064
35.140000 6.140084
35.160000 5.820205
35.180000 5.453835
35.200000 5.064191
35.220000 4.712245
35.240000 4.327222
35.260000 3.859076
35.280000 3.289013
35.300000 2.712690
35.320000 2.019818
35.340000 1.228641
35.360000 0.600618
35.380000 -0.066460
35.400000 -0.629367
35.420000 -1.077699
35.440000 -1.498094
35.460000 -1.826641
35.480000 -2.191401
35.500000 -2.675357
35.520000 -3.098539
35.540000 -3.557541
35.560000 -4.065149
35.580000 -4.454443
35.600000 -4.800480
35.620000 -5.007198
35.640000 -5.201396
35.660000 -5.375164
35.680000 -5.553399
35.700000 -5.804199
35.720000 -6.109277
35.740000 -6.543241
35.760000 -7.008965
35.780000 -7.534609
35.800000 -8.016395
35.820000 -8.193104
35.840000 -8.377234
35.860000 -8.665171
35.880000 -8.893636
35.900000 -9.071969
35.920000 -9.157473
35.940000 -9.233148
35.960000 -9.341940
35.980000 -9.223667
36.000000 -9.113377
36.020000 -8.958808
36.040000 -8.551002
36.060000 -8.184631
36.080000 -7.794316
36.100000 -7.571326
36.120000 -7.362620
36.140000 -7.063998
36.160000 -6.711169
36.180000 -6.290634
36.200000 -5.854387
36.220000 -5.296283
36.240000 -4.614389
36.260000 -3.885794
36.280000 -3.243754
36.300000 -2.679180
36.320000 -2.204704
36.340000 -1.736824
36.360000 -1.338008
36.380000 -1.016126
36.400000 -0.595689
36.420000 -0.157818
36.440000 0.345533
36.460000 0.847820
36.480000 1.236917
36.500000 1.679186
36.520000 2.060679
36.540000 2.301663
36.560000 2.495316
36.580000 2.709721
36.600000 2.988794
36.620000 3.305887
36.640000 3.596625
36.660000 3.945841
36.680000 4.347303
36.700000 4.624276
36.720000 4.850836
36.740000 5.100796
36.760000 5.305637
36.780000 5.581854
36.800000 5.857384
36.820000 6.135351
36.840000 6.515556
36.860000 6.861930
36.880000 7.185939
36.900000 7.469690
36.920000 7.635167
36.940000 7.801975
36.960000 7.999451
36.980000 8.097993
37.000000 8.247241
37.020000 8.392904
37.040000 8.545610
37.060000 8.592157
37.080000 8.507885
37.100000 8.461282
37.120000 8.243754
37.140000 8.005935
37.160000 7.736664
37.180000 7.496352
37.200000 7.395794
37.220000 7.220178
37.240000 7.060063
37.260000 7.001557
37.280000 6.806070
37.300000 6.582044
37.320000 6.278577
37.340000 5.928185
37.360000 5.634843
37.380000 5.248350
37.400000 4.896977
37.420000 4.567828
37.440000 4.141061
37.460000 3.689887
37.480000 3.142005
37.500000 2.512344
37.520000 1.796730
37.540000 1.085919
37.560000 0.403955
37.580000 -0.220175
37.600000 -0.755062
37.620000 -1.191602
37.640000 -1.597042
37.660000 -1.955136
37.680000 -2.320134
37.700000 -2.800225
37.720000 -3.219598
37.740000 -3.716157
37.760000 -4.151340
37.780000 -4.520189
37.800000 -4.847895
37.820000 -5.008878
37.840000 -5.213845
37.860000 -5.374744
37.880000 -5.568131
37.900000 -5.837023
37.920000 -6.173538
37.940000 -6.667199
37.960000 -7.171964
37.980000 -7.689276
38.000000 -8.060534
38.020000 -8.231277
38.040000 -8.468200
38.060000 -8.692352
38.080000 -8.901646
38.100000 -9.067936
38.120000 -9.105479
38.140000 -9.183982
38.160000 -9.236382
38.180000 -9.114119
38.200000 -8.974855
38.220000 -8.707293
38.240000 -8.327774
38.260000 -7.933803
38.280000 -7.551119
38.300000 -7.389352
38.320000 -7.196778
38.340000 -6.867741
38.360000 -6.457624
38.380000 -6.103773
38.400000 -5.675228
38.420000 -5.058408
38.440000 -4.295645
38.460000 -3.684370
38.480000 -3.109868
38.500000 -2.528420
38.520000 -2.087524
38.540000 -1.743251
38.560000 -1.383799
38.580000 -1.017625
38.600000 -0.646717
38.620000 -0.207348
38.640000 0.329471
38.660000 0.796554
38.680000 1.206558
38.700000 1.597924
38.720000 1.954254
38.740000 2.174653
38.760000 2.318411
38.780000 2.586212
38.800000 2.924645
38.820000 3.214921
38.840000 3.518136
38.860000 3.949257
38.880000 4.365857
38.900000 4.604545
38.920000 4.843960
38.940000 5.104773
38.960000 5.356960
38.980000 5.613515
39.000000 5.905066
39.020000 6.273998
39.040000 6.671638
39.060000 7.062752
39.080000 7.390024
39.100000 7.642197
39.120000 7.818457
39.140000 8.004086
39.160000 8.179632
39.180000 8.293452
39.200000 8.421344
39.220000 8.608499
39.240000 8.788779
39.260000 8.738535
39.280000 8.659794
39.300000 8.550820
39.320000 8.391615
39.340000 8.044626
39.360000 7.689430
39.380000 7.572180
39.400000 7.439162
39.420000 7.225037
39.440000 7.051465
39.460000 6.965302
39.480000 6.844005
39.500000 6.518959
39.520000 6.125759
39.540000 5.838143
39.560000 5.547336
39.580000 5.097967
39.600000 4.769715
39.620000 4.404409
39.640000 4.038613
39.660000 3.569094
39.680000 2.942583
39.700000 2.331490
39.720000 1.570604
39.740000 0.910653
39.760000 0.234696
39.780000 -0.449144
39.800000 -0.957032
39.820000 -1.310141
39.840000 -1.674747
39.860000 -2.166055
39.880000 -2.559101
39.900000 -2.917979
39.920000 -3.342828
39.940000 -3.924149
39.960000 -4.409324
39.980000 -4.657184
40.000000 -4.845655
40.020000 -5.138549
40.040000 -5.395805
40.060000 -5.426304
40.080000 -5.601024
40.100000 -5.997418
40.120000 -6.397200
40.140000 -6.854788
40.160000 -7.316549
40.180000 -7.909535
40.200000 -8.218422
40.220000 -8.339033
40.240000 -8.567848
40.260000 -8.780419
40.280000 -8.934778
40.300000 -9.064813
40.320000 -9.202186
40.340000 -9.199792
40.360000 -9.173717
40.380000 -9.132281
40.400000 -8.967602
40.420000 -8.621130
40.440000 -8.111548
40.460000 -7.757501
40.480000 -7.521628
40.500000 -7.197590
40.520000 -6.942967
40.540000 -6.724416
40.560000 -6.285257
40.580000 -5.908706
40.600000 -5.445013
40.620000 -4.810758
40.640000 -4.135838
40.660000 -3.401586
40.680000 -2.875549
40.700000 -2.358097
40.720000 -1.851833
40.740000 -1.598904
40.760000 -1.242603
40.780000 -0.892743
40.800000 -0.482136
40.820000 -0.064121
40.840000 0.410453
40.860000 0.960743
40.880000 1.365426
40.900000 1.699967
40.920000 2.031146
40.940000 2.230792
40.960000 2.431082
40.980000 2.636596
41.000000 2.934797
41.020000 3.294656
41.040000 3.609396
41.060000 4.007735
41.080000 4.416970
41.100000 4.627258
41.120000 4.889849
41.140000 5.142218
41.160000 5.358192
41.180000 5.617506
41.200000 5.892715
41.220000 6.328555
41.240000 6.698244
41.260000 7.032743
41.280000 7.358027
41.300000 7.621724
41.320000 7.802676
41.340000 7.890827
41.360000 8.058419
41.380000 8.239847
41.400000 8.348107
41.420000 8.534534
41.440000 8.642402
41.460000 8.679678
41.480000 8.665087
41.500000 8.466869
41.520000 8.291015
41.540000 8.025721
41.560000 7.705968
41.580000 7.575779
41.600000 7.419165
41.620000 7.233495
41.640000 7.192801
41.660000 7.057977
41.680000 6.867321
41.700000 6.585951
41.720000 6.231736
41.740000 5.953041
41.760000 5.549870
41.780000 5.137079
41.800000 4.838023
41.820000 4.507053
41.840000 4.072865
41.860000 3.479024
41.880000 2.945426
41.900000 2.287100
41.920000 1.455538
41.940000 0.681852
41.960000 -0.018414
41.980000 -0.575188
42.000000 -1.131304
42.020000 -1.632919
42.040000 -2.014160
42.060000 -2.337792
42.080000 -2.773227
42.100000 -3.291225
42.120000 -3.775770
42.140000 -4.235080
42.160000 -4.659984
42.180000 -5.034294
42.200000 -5.281076
42.220000 -5.461145
42.240000 -5.532926
42.260000 -5.699104
42.280000 -5.908132
42.300000 -6.163120
42.320000 -6.579034
42.340000 -6.966297
42.360000 -7.530128
42.380000 -8.028326
42.400000 -8.165335
42.420000 -8.269380
42.440000 -8.477666
42.460000 -8.679482
42.480000 -8.744388
42.500000 -8.781931
42.520000 -8.895022
42.540000 -8.988957
42.560000 -8.916671
42.580000 -8.757397
42.600000 -8.645566
42.620000 -8.300607
42.640000 -7.817897
42.660000 -7.446584
42.680000 -7.196274
42.700000 -6.991307
42.720000 -6.782068
42.740000 -6.497996
42.760000 -6.157028
42.780000 -5.786345
42.800000 -5.308088
42.820000 -4.743150
42.840000 -3.999473
42.860000 -3.325225
42.880000 -2.881571
42.900000 -2.357929
42.920000 -1.922816
42.940000 -1.627037
42.960000 -1.330824
42.980000 -0.996830
43.000000 -0.521037
43.020000 -0.061125
43.040000 0.443865
43.060000 0.917823
43.080000 1.395533
43.100000 1.769703
43.120000 1.998728
43.140000 2.257707
43.160000 2.470348
43.180000 2.673271
43.200000 3.063979
43.220000 3.376492
43.240000 3.740313
43.260000 4.226734
43.280000 4.513537
43.300000 4.796867
43.320000 5.038719
43.340000 5.210078
43.360000 5.522199
43.380000 5.710909
43.400000 6.005722
43.420000 6.454572
43.440000 6.829120
43.460000 7.147542
43.480000 7.416813
43.500000 7.684865
43.520000 7.836662
43.540000 7.926129
43.560000 8.020666
43.580000 8.209670
43.600000 8.367599
43.620000 8.488266
43.640000 8.567890
43.660000 8.636198
43.680000 8.540065
43.700000 8.376744
43.720000 8.175025
43.740000 7.847710
43.760000 7.661158
43.780000 7.494630
43.800000 7.340032
43.820000 7.265324
43.840000 7.140891
43.860000 7.079360
43.880000 6.860921
43.900000 6.530232
43.920000 6.207300
43.940000 5.886343
43.960000 5.498492
43.980000 5.102869
44.000000 4.771297
44.020000 4.434446
44.040000 3.953710
44.060000 3.337744
44.080000 2.797943
44.100000 2.019720
44.120000 1.252517
44.140000 0.485427
44.160000 -0.227205
44.180000 -0.733818
44.200000 -1.312031
44.220000 -1.721700
44.240000 -2.089232
44.260000 -2.470376
44.280000 -2.897324
44.300000 -3.431287
44.320000 -3.867534
44.340000 -4.334882
44.360000 -4.768258
44.380000 -5.055257
44.400000 -5.261163
44.420000 -5.440378
44.440000 -5.510199
44.460000 -5.665048
44.480000 -5.904897
44.500000 -6.157140
44.520000 -6.557986
44.540000 -7.013712
44.560000 -7.523673
44.580000 -7.960536
44.600000 -8.059091
44.620000 -8.181747
44.640000 -8.436356
44.660000 -8.628426
44.680000 -8.666039
44.700000 -8.756641
44.720000 -8.876636
44.740000 -8.945112
44.760000 -8.835942
44.780000 -8.712460
44.800000 -8.597983
44.820000 -8.202486
44.840000 -7.774907
44.860000 -7.470880
44.880000 -7.240244
44.900000 -7.052263
44.920000 -6.831220
44.940000 -6.502449
44.960000 -6.154774
44.980000 -5.749334
45.000000 -5.253615
45.020000 -4.627944
45.040000 -3.902052
45.060000 -3.286968
45.080000 -2.832657
45.100000 -2.312684
45.120000 -1.890104
45.140000 -1.587100
45.160000 -1.286755
45.180000 -0.863588
45.200000 -0.372560
45.220000 0.095293
45.240000 0.582302
45.260000 1.061973
45.280000 1.525947
45.300000 1.862868
45.320000 2.118793
45.340000 2.359805
45.360000 2.569240
45.380000 2.853690
45.400000 3.197543
45.420000 3.521090
45.440000 3.917316
45.460000 4.306987
45.480000 4.656063
45.500000 4.872107
45.520000 5.085238
45.540000 5.331684
45.560000 5.593771
45.580000 5.835777
45.600000 6.131906
45.620000 6.535469
45.640000 6.919231
45.660000 7.187802
45.680000 7.458417
45.700000 7.687344
45.720000 7.834645
45.740000 7.958981
45.760000 8.060478
45.780000 8.234049
45.800000 8.418096
45.820000 8.493238
45.840000 8.590743
45.860000 8.571811
45.880000 8.450555
45.900000 8.318322
45.920000 8.014421
45.940000 7.792313
45.960000 7.565879
45.980000 7.417485
46.000000 7.292253
46.020000 7.165747
46.040000 7.052809
46.060000 6.954212
46.080000 6.697110
46.100000 6.355260
46.120000 6.045295
46.140000 5.752065
46.160000 5.347493
46.180000 4.968562
46.200000 4.615117
46.220000 4.255371
46.240000 3.746153
46.260000 3.149511
46.280000 2.501729
46.300000 1.794811
46.320000 1.048306
46.340000 0.305582
46.360000 -0.323198
46.380000 -0.861277
46.400000 -1.283338
46.420000 -1.720916
46.440000 -2.097550
46.460000 -2.450883
46.480000 -2.928440
46.500000 -3.337170
46.520000 -3.857927
46.540000 -4.333174
46.560000 -4.628645
46.580000 -4.939449
46.600000 -5.139670
46.620000 -5.342270
46.640000 -5.471633
46.660000 -5.598042
46.680000 -5.927345
46.700000 -6.276743
46.720000 -6.661611
46.740000 -7.168897
46.760000 -7.687708
46.780000 -8.055254
46.800000 -8.230493
46.820000 -8.322369
46.840000 -8.667496
46.860000 -8.844148
46.880000 -8.872743
46.900000 -9.046483
46.920000 -9.078830
46.940000 -9.125308
46.960000 -9.011278
46.980000 -8.863683
47.000000 -8.665815
47.020000 -8.224821
47.040000 -7.841157
47.060000 -7.537998
47.080000 -7.298779
47.100000 -7.042657
47.120000 -6.782516
47.140000 -6.425263
47.160000 -5.977841
47.180000 -5.511557
47.200000 -4.981165
47.220000 -4.286444
47.240000 -3.598025
47.260000 -3.036896
47.280000 -2.518477
47.300000 -2.087706
47.320000 -1.671036
47.340000 -1.330390
47.360000 -1.015776
47.380000 -0.554155
47.400000 -0.132500
47.420000 0.330759
47.440000 0.840748
47.460000 1.264602
47.480000 1.641909
47.500000 1.968873
47.520000 2.209549
47.540000 2.405512
47.560000 2.612188
47.580000 2.921284
47.600000 3.251386
47.620000 3.568352
47.640000 3.916840
47.660000 4.293124
47.680000 4.618730
47.700000 4.812859
47.720000 5.026438
47.740000 5.315636
47.760000 5.546019
47.780000 5.844403
47.800000 6.168959
47.820000 6.508345
47.840000 6.928726
47.860000 7.190140
47.880000 7.409475
47.900000 7.636190
47.920000 7.783337
47.940000 7.952484
47.960000 8.134513
47.980000 8.235744
48.000000 8.396614
48.020000 8.566867
48.040000 8.558885
48.060000 8.489625
48.080000 8.358945
48.100000 8.207023
48.120000 7.982171
48.140000 7.693687
48.160000 7.503284
48.180000 7.441557
48.200000 7.303428
48.220000 7.166545
48.240000 7.061772
48.260000 6.906908
48.280000 6.678681
48.300000 6.361407
48.320000 6.022190
48.340000 5.726397
48.360000 5.364227
48.380000 5.017518
48.400000 4.656329
48.420000 4.214103
48.440000 3.667874
48.460000 3.094436
48.480000 2.430732
48.500000 1.630356
48.520000 0.893037
48.540000 0.215736
48.560000 -0.383328
48.580000 -0.950142
48.600000 -1.425263
48.620000 -1.817847
48.640000 -2.188824
48.660000 -2.618223
48.680000 -3.134920
48.700000 -3.576264
48.720000 -4.025996
48.740000 -4.505891
48.760000 -4.831441
48.780000 -5.054837
48.800000 -5.295303
48.820000 -5.412777
48.840000 -5.592314
48.860000 -5.785799
48.880000 -6.072784
48.900000 -6.450259
48.920000 -6.840336
48.940000 -7.342525
48.960000 -7.885043
48.980000 -8.085390
49.000000 -8.189211
49.020000 -8.461352
49.040000 -8.695516
49.060000 -8.806619
49.080000 -8.864873
49.100000 -8.934960
49.120000 -9.060556
49.140000 -8.960348
49.160000 -8.857199
49.180000 -8.774299
49.200000 -8.448147
49.220000 -8.038086
49.240000 -7.695158
49.260000 -7.454902
49.280000 -7.252469
49.300000 -6.988562
49.320000 -6.726671
49.340000 -6.332378
49.360000 -5.929739
49.380000 -5.479853
49.400000 -4.864195
49.420000 -4.205869
49.440000 -3.506597
49.460000 -3.018314
49.480000 -2.543936
49.500000 -2.025489
49.520000 -1.720832
49.540000 -1.373828
49.560000 -0.968123
49.580000 -0.542000
49.600000 -0.112111
49.620000 0.409318
49.640000 0.885615
49.660000 1.332140
49.680000 1.708719
49.700000 2.013964
49.720000 2.269904
49.740000 2.501225
49.760000 2.747671
49.780000 3.053910
49.800000 3.429999
49.820000 3.745662
49.840000 4.119748
49.860000 4.537931
49.880000 4.744565
49.900000 5.008850
49.920000 5.265700
49.940000 5.487107
49.960000 5.754109
49.980000 6.014488
50.000000 6.369235
50.020000 6.750813
50.040000 7.048650
50.060000 7.335509
50.080000 7.567209
50.100000 7.725293
50.120000 7.870634
50.140000 7.980953
50.160000 8.149875
50.180000 8.265865
50.200000 8.416051
50.220000 8.509874
50.240000 8.510840
50.260000 8.409624
50.280000 8.282963
50.300000 8.107823
50.320000 7.806247
50.340000 7.573399
50.360000 7.438182
50.380000 7.339542
50.400000 7.169990
50.420000 7.052053
50.440000 7.002999
50.460000 6.813086
50.480000 6.523706
50.500000 6.225477
50.520000 5.945311
50.540000 5.629941
50.560000 5.231532
50.580000 4.902074
50.600000 4.579017
50.620000 4.148427
50.640000 3.505897
50.660000 3.000921
50.680000 2.295796
50.700000 1.463366
50.720000 0.760985
50.740000 0.037333
50.760000 -0.516584
50.780000 -1.099068
50.800000 -1.560857
50.820000 -1.890398
50.840000 -2.331701
50.860000 -2.757949
50.880000 -3.241611
50.900000 -3.684678
50.920000 -4.136020
50.940000 -4.613017
50.960000 -4.898966
50.980000 -5.037739
51.000000 -5.325634
51.020000 -5.448668
51.040000 -5.507776
51.060000 -5.765368
51.080000 -6.051527
51.100000 -6.491793
51.120000 -6.877669
51.140000 -7.376847
51.160000 -7.933537
51.180000 -8.059399
51.200000 -8.172547
51.220000 -8.414441
51.240000 -8.679160
51.260000 -8.789675
51.280000 -8.798847
51.300000 -8.936990
51.320000 -9.061018
51.340000 -8.941121
51.360000 -8.820146
51.380000 -8.737666
51.400000 -8.368832
51.420000 -7.916719
51.440000 -7.623587
51.460000 -7.376427
51.480000 -7.181500
51.500000 -6.928151
51.520000 -6.634669
51.540000 -6.289878
51.560000 -5.868755
51.580000 -5.352941
51.600000 -4.757126
51.620000 -4.056705
51.640000 -3.354240
51.660000 -2.900237
51.680000 -2.387966
51.700000 -1.983815
51.720000 -1.674439
51.740000 -1.291250
51.760000 -0.982574
51.780000 -0.506138
51.800000 -0.023274
51.820000 0.474476
51.840000 1.011183
51.860000 1.369725
51.880000 1.780486
51.900000 2.089722
51.920000 2.252483
51.940000 2.503858
51.960000 2.741313
51.980000 3.124473
52.000000 3.447013
52.020000 3.773235
52.040000 4.238553
52.060000 4.561877
52.080000 4.784684
52.100000 5.048466
52.120000 5.227555
52.140000 5.494221
52.160000 5.766362
52.180000 6.031446
52.200000 6.454264
52.220000 6.789168
52.240000 7.109789
52.260000 7.426601
52.280000 7.578482
52.300000 7.732421
52.320000 7.857527
52.340000 8.013496
52.360000 8.160686
52.380000 8.277628
52.400000 8.494162
52.420000 8.575844
52.440000 8.558297
52.460000 8.463775
52.480000 8.325127
52.500000 8.116029
52.520000 7.802606
52.540000 7.572222
52.560000 7.493397
52.580000 7.313188
52.600000 7.219197
52.620000 7.155636
52.640000 7.032785
52.660000 6.858135
52.680000 6.517979
52.700000 6.214372
52.720000 5.956878
52.740000 5.536567
52.760000 5.198106
52.780000 4.890718
52.800000 4.533576
52.820000 4.066732
52.840000 3.467528
52.860000 2.900713
52.880000 2.143831
52.900000 1.349939
52.920000 0.599120
52.940000 -0.115500
52.960000 -0.687523
52.980000 -1.210395
53.000000 -1.660645
53.020000 -2.038680
53.040000 -2.436600
53.060000 -2.930316
53.080000 -3.383535
53.100000 -3.864383
53.120000 -4.331969
53.140000 -4.759310
53.160000 -5.019409
53.180000 -5.207404
53.200000 -5.398018
53.220000 -5.499192
53.240000 -5.605421
53.260000 -5.842008
53.280000 -6.180610
53.300000 -6.585671
53.320000 -7.047950
53.340000 -7.570822
53.360000 -7.982269
53.380000 -8.165405
53.400000 -8.241583
53.420000 -8.505351
53.440000 -8.750451
53.460000 -8.783597
53.480000 -8.892152
53.500000 -9.043976
53.520000 -9.094724
53.540000 -8.996995
53.560000 -8.896661
53.580000 -8.723243
53.600000 -8.349913
53.620000 -7.882257
53.640000 -7.569450
53.660000 -7.365813
53.680000 -7.109523
53.700000 -6.915983
53.720000 -6.547414
53.740000 -6.177753
53.760000 -5.767146
53.780000 -5.217668
53.800000 -4.583204
53.820000 -3.789493
53.840000 -3.206239
53.860000 -2.729032
53.880000 -2.161406
53.900000 -1.754468
53.920000 -1.477523
53.940000 -1.198254
53.960000 -0.696037
53.980000 -0.243925
54.000000 0.124182
54.020000 0.648188
54.040000 1.207496
54.060000 1.553505
54.080000 1.834315
54.100000 2.139756
54.120000 2.380586
54.140000 2.555348
54.160000 2.736874
54.180000 3.162394
54.200000 3.545792
54.220000 3.823031
54.240000 4.209664
54.260000 4.592992
54.280000 4.855849
54.300000 4.967596
54.320000 5.208118
54.340000 5.559616
54.360000 5.757736
54.380000 6.029443
54.400000 6.477313
54.420000 6.898436
54.440000 7.145568
54.460000 7.385977
54.480000 7.652910
54.500000 7.792061
54.520000 7.849111
54.540000 8.000165
54.560000 8.209123
54.580000 8.382373
54.600000 8.446760
54.620000 8.565607
54.640000 8.668630
54.660000 8.476028
54.680000 8.247843
54.700000 8.069468
54.720000 7.850063
54.740000 7.593605
54.760000 7.401087
54.780000 7.321492
54.800000 7.311704
54.820000 7.158633
54.840000 7.002887
54.860000 6.833279
54.880000 6.547106
54.900000 6.182836
54.920000 5.870547
54.940000 5.474868
54.960000 5.154205
54.980000 4.856577
55.000000 4.449864
55.020000 3.935982
55.040000 3.395480
55.060000 2.772821
55.080000 2.040178
55.100000 1.201615
55.120000 0.346961
55.140000 -0.177899
55.160000 -0.765536
55.180000 -1.382048
55.200000 -1.792319
55.220000 -2.132825
55.240000 -2.475375
55.260000 -3.005052
55.280000 -3.561616
55.300000 -3.905903
55.320000 -4.343802
55.340000 -4.816934
55.360000 -5.096637
55.380000 -5.246823
55.400000 -5.365908
55.420000 -5.525182
55.440000 -5.731886
55.460000 -5.919531
55.480000 -6.230854
55.500000 -6.659161
55.520000 -7.144643
55.540000 -7.656971
55.560000 -8.000669
55.580000 -8.168654
55.600000 -8.310564
55.620000 -8.571432
55.640000 -8.740341
55.660000 -8.810078
55.680000 -8.996197
55.700000 -9.134452
55.720000 -9.114539
55.740000 -9.022929
55.760000 -8.947899
55.780000 -8.760856
55.800000 -8.314513
55.820000 -7.889314
55.840000 -7.573945
55.860000 -7.379256
55.880000 -7.120208
55.900000 -6.845672
55.920000 -6.539166
55.940000 -6.089042
55.960000 -5.649112
55.980000 -5.133760
56.000000 -4.398317
56.020000 -3.698863
56.040000 -3.121392
56.060000 -2.562196
56.080000 -2.090338
56.100000 -1.669971
56.120000 -1.355820
56.140000 -1.056176
56.160000 -0.544857
56.180000 -0.123832
56.200000 0.303201
56.220000 0.847022
56.240000 1.275245
56.260000 1.660981
56.280000 1.972738
56.300000 2.212196
56.320000 2.459663
56.340000 2.650095
56.360000 2.938620
56.380000 3.282557
56.400000 3.608219
56.420000 3.984616
56.440000 4.349334
56.460000 4.675976
56.480000 4.892258
56.500000 5.083348
56.520000 5.376004
56.540000 5.583744
56.560000 5.845159
56.580000 6.194179
56.600000 6.538312
56.620000 6.932969
56.640000 7.186135
56.660000 7.414418
56.680000 7.637324
56.700000 7.742601
56.720000 7.856225
56.740000 8.025917
56.760000 8.157577
56.780000 8.315871
56.800000 8.428234
56.820000 8.504230
56.840000 8.471953
56.860000 8.325715
56.880000 8.193874
56.900000 7.938858
56.920000 7.722856
56.940000 7.538306
56.960000 7.428156
56.980000 7.357467
57.000000 7.234265
57.020000 7.169219
57.040000 7.061534
57.060000 6.781676
57.080000 6.495727
57.100000 6.169099
57.120000 5.890516
57.140000 5.505774
57.160000 5.122893
57.180000 4.835614
57.200000 4.443926
57.220000 3.834360
57.240000 3.265683
57.260000 2.619176
57.280000 1.827075
57.300000 1.004405
57.320000 0.218649
57.340000 -0.347662
57.360000 -0.925524
57.380000 -1.477047
57.400000 -1.889950
57.420000 -2.245034
57.440000 -2.638528
57.460000 -3.196450
57.480000 -3.690881
57.500000 -4.100130
57.520000 -4.594967
57.540000 -4.981165
57.560000 -5.193596
57.580000 -5.402149
57.600000 -5.592468
57.620000 -5.689316
57.640000 -5.850060
57.660000 -6.104011
57.680000 -6.467609
57.700000 -6.834371
57.720000 -7.232865
57.740000 -7.787454
57.760000 -8.134892
57.780000 -8.165377
57.800000 -8.285134
57.820000 -8.594510
57.840000 -8.744668
57.860000 -8.801522
57.880000 -8.861596
57.900000 -8.996701
57.920000 -9.031177
57.940000 -8.843112
57.960000 -8.733241
57.980000 -8.538735
58.000000 -8.105568
58.020000 -7.716471
58.040000 -7.440745
58.060000 -7.209983
58.080000 -6.999135
58.100000 -6.743139
58.120000 -6.371182
58.140000 -5.957704
58.160000 -5.502315
58.180000 -4.976404
58.200000 -4.308948
58.220000 -3.578616
58.240000 -3.004660
58.260000 -2.548767
58.280000 -2.064460
58.300000 -1.622682
58.320000 -1.304148
58.340000 -0.978947
58.360000 -0.549268
58.380000 -0.070185
58.400000 0.392878
58.420000 0.870225
58.440000 1.286279
58.460000 1.683065
58.480000 2.028122
58.500000 2.264344
58.520000 2.444456
58.540000 2.696894
58.560000 3.032149
58.580000 3.369588
58.600000 3.683964
58.620000 4.000972
58.640000 4.474874
58.660000 4.732704
58.680000 4.899036
58.700000 5.173572
58.720000 5.426164
58.740000 5.702143
58.760000 5.917851
58.780000 6.219399
58.800000 6.680754
58.820000 7.003350
58.840000 7.220374
58.860000 7.445520
58.880000 7.659141
58.900000 7.829898
58.920000 7.924785
58.940000 8.024251
58.960000 8.207065
58.980000 8.366815
59.000000 8.469180
59.020000 8.459952
59.040000 8.379978
59.060000 8.333921
59.080000 8.178680
59.100000 7.898347
59.120000 7.645432
59.140000 7.549439
59.160000 7.495022
59.180000 7.320764
59.200000 7.198220
59.220000 7.156518
59.240000 7.041257
59.260000 6.768681
59.280000 6.417169
59.300000 6.133432
59.320000 5.862173
59.340000 5.455571
59.360000 5.065326
59.380000 4.684518
59.400000 4.242306
59.420000 3.658547
59.440000 3.039865
59.460000 2.306214
59.480000 1.509703
59.500000 0.784609
59.520000 0.060018
59.540000 -0.575286
59.560000 -1.123168
59.580000 -1.606956
59.600000 -1.976183
59.620000 -2.377688
59.640000 -2.869318
59.660000 -3.315493
59.680000 -3.742428
59.700000 -4.191516
59.720000 -4.662561
59.740000 -5.007170
59.760000 -5.173530
59.780000 -5.370851
59.800000 -5.562221
59.820000 -5.697928
59.840000 -5.858280
59.860000 -6.087599
59.880000 -6.480338
59.900000 -6.904752
59.920000 -7.335103
59.940000 -7.804468
59.960000 -8.061262
59.980000 -8.175375
60.000000 -8.411850
60.020000 -8.647233
60.040000 -8.783611
60.060000 -8.863347
60.080000 -8.949761
60.100000 -9.025548
60.120000 -8.970836
60.140000 -8.874311
60.160000 -8.758727
60.180000 -8.472821
60.200000 -8.065547
60.220000 -7.740081
60.240000 -7.517315
60.260000 -7.302798
60.280000 -7.032308
60.300000 -6.734163
60.320000 -6.338694
60.340000 -5.908888
60.360000 -5.415396
60.380000 -4.797441
60.400000 -4.113349
60.420000 -3.453944
60.440000 -2.909717
60.460000 -2.407655
60.480000 -1.929510
60.500000 -1.573656
60.520000 -1.206656
60.540000 -0.822586
60.560000 -0.393074
60.580000 0.090266
60.600000 0.538597
60.620000 1.060629
60.640000 1.456616
60.660000 1.801365
60.680000 2.141115
60.700000 2.360001
60.720000 2.588774
60.740000 2.801051
60.760000 3.106815
60.780000 3.478464
60.800000 3.773319
60.820000 4.131259
60.840000 4.497993
60.860000 4.738739
60.880000 5.015250
60.900000 5.210050
60.920000 5.429889
60.940000 5.739322
60.960000 5.974480
60.980000 6.363228
61.000000 6.696172
61.020000 6.957432
61.040000 7.325091
61.060000 7.529764
61.080000 7.674867
61.100000 7.809215
61.120000 7.985546
61.140000 8.177308
61.160000 8.272167
61.180000 8.349829
61.200000 8.481181
61.220000 8.578000
61.240000 8.424117
61.260000 8.217021
61.280000 8.102376
61.300000 7.961642
61.320000 7.699821
61.340000 7.501589
61.360000 7.379634
61.380000 7.413088
61.400000 7.319265
61.420000 7.019481
61.440000 6.899291
61.460000 6.741753
61.480000 6.373940
61.500000 6.033336
61.520000 5.611681
61.540000 5.364087
61.560000 5.050804
61.580000 4.512991
61.600000 3.989545
61.620000 3.471561
61.640000 2.890169
61.660000 2.103054
61.680000 1.249814
61.700000 0.512201
61.720000 -0.052135
61.740000 -0.662065
61.760000 -1.310953
61.780000 -1.739890
61.800000 -2.030950
61.820000 -2.383135
61.840000 -2.950719
61.860000 -3.473927
61.880000 -3.784508
61.900000 -4.188785
61.920000 -4.704193
61.940000 -5.052050
61.960000 -5.166094
61.980000 -5.290010
62.000000 -5.526064
62.020000 -5.756364
62.040000 -5.927569
62.060000 -6.139594
62.080000 -6.531142
62.100000 -7.082399
62.120000 -7.569310
62.140000 -7.859893
62.160000 -8.088484
62.180000 -8.286954
62.200000 -8.570718
62.220000 -8.765645
62.240000 -8.772255
62.260000 -8.947619
62.280000 -9.103560
62.300000 -9.008394
62.320000 -8.934666
62.340000 -8.893776
62.360000 -8.728298
62.380000 -8.396993
62.400000 -7.927586
62.420000 -7.671548
62.440000 -7.539706
62.460000 -7.241911
62.480000 -6.959491
62.500000 -6.600711
62.520000 -6.215016
62.540000 -5.804255
62.560000 -5.200262
62.580000 -4.529669
62.600000 -3.893790
62.620000 -3.340713
62.640000 -2.751367
62.660000 -2.229140
62.680000 -1.859633
62.700000 -1.519421
62.720000 -1.136695
62.740000 -0.681600
62.760000 -0.260519
62.780000 0.148016
62.800000 0.638455
62.820000 1.131416
62.840000 1.469051
62.860000 1.821026
62.880000 2.075971
62.900000 2.292631
62.920000 2.535407
62.940000 2.813682
62.960000 3.115455
62.980000 3.414035
63.000000 3.843140
63.020000 4.212395
63.040000 4.483990
63.060000 4.749676
63.080000 5.017518
63.100000 5.313031
63.120000 5.502889
63.140000 5.757540
63.160000 6.149326
63.180000 6.502253
63.200000 6.804278
63.220000 7.117799
63.240000 7.393105
63.260000 7.622424
63.280000 7.763102
63.300000 7.840471
63.320000 8.091649
63.340000 8.239259
63.360000 8.361550
63.380000 8.492944
63.400000 8.511736
63.420000 8.567918
63.440000 8.453104
63.460000 8.275303
63.480000 8.045326
63.500000 7.835612
63.520000 7.730236
63.540000 7.532313
63.560000 7.370644
63.580000 7.354610
63.600000 7.271906
63.620000 7.104062
63.640000 6.818309
63.660000 6.569049
63.680000 6.343357
63.700000 5.980838
63.720000 5.513769
63.740000 5.236895
63.760000 4.898476
63.780000 4.468516
63.800000 3.861680
63.820000 3.249299
63.840000 2.707117
63.860000 1.873720
63.880000 1.075865
63.900000 0.329471
63.920000 -0.311855
63.940000 -0.811005
63.960000 -1.380718
63.980000 -1.820018
64.000000 -2.198346
64.020000 -2.553990
64.040000 -2.994564
64.060000 -3.551184
64.080000 -3.995076
64.100000 -4.366208
64.120000 -4.771045
64.140000 -5.042780
64.160000 -5.284800
64.180000 -5.466942
64.200000 -5.490496
64.220000 -5.740736
64.240000 -6.015986
64.260000 -6.255220
64.280000 -6.644107
64.300000 -7.084205
64.320000 -7.642771
64.340000 -7.987674
64.360000 -8.033087
64.380000 -8.220340
64.400000 -8.525179
64.420000 -8.690111
64.440000 -8.715415
64.460000 -8.803104
64.480000 -8.928994
64.500000 -8.926740
64.520000 -8.853180
64.540000 -8.761668
64.560000 -8.576180
64.580000 -8.211280
64.600000 -7.850399
64.620000 -7.577880
64.640000 -7.395416
64.660000 -7.154320
64.680000 -6.893759
64.700000 -6.591763
64.720000 -6.119261
64.740000 -5.726677
64.760000 -5.195277
64.780000 -4.479481
64.800000 -3.825916
64.820000 -3.195232
64.840000 -2.726497
64.860000 -2.216285
64.880000 -1.765810
64.900000 -1.477803
64.920000 -1.152995
64.940000 -0.688742
64.960000 -0.244359
64.980000 0.164105
65.000000 0.705028
65.020000 1.120325
65.040000 1.550621
65.060000 1.876395
65.080000 2.077904
65.100000 2.369888
65.120000 2.558891
65.140000 2.854166
65.160000 3.194952
65.180000 3.536984
65.200000 3.900582
65.220000 4.320809
65.240000 4.657338
65.260000 4.845949
65.280000 5.138339
65.300000 5.392458
65.320000 5.648104
65.340000 5.902657
65.360000 6.195775
65.380000 6.618243
65.400000 6.956074
65.420000 7.209059
65.440000 7.437132
65.460000 7.684725
65.480000 7.803712
65.500000 7.899579
65.520000 8.071624
65.540000 8.200455
65.560000 8.376184
65.580000 8.456353
65.600000 8.551128
65.620000 8.543174
65.640000 8.405086
65.660000 8.293228
65.680000 8.071414
65.700000 7.823723
65.720000 7.630560
65.740000 7.546386
65.760000 7.443979
65.780000 7.326365
65.800000 7.217293
65.820000 7.094791
65.840000 6.869421
65.860000 6.546700
65.880000 6.174322
65.900000 5.893373
65.920000 5.514708
65.940000 5.113945
65.960000 4.744649
65.980000 4.354403
66.000000 3.768978
66.020000 3.185850
66.040000 2.517063
66.060000 1.706982
66.080000 0.977029
66.100000 0.195585
66.120000 -0.428405
66.140000 -0.989520
66.160000 -1.501035
66.180000 -1.910759
66.200000 -2.282465
66.220000 -2.657027
66.240000 -3.174633
66.260000 -3.642276
66.280000 -4.051006
66.300000 -4.543098
66.320000 -4.887973
66.340000 -5.153099
66.360000 -5.339568
66.380000 -5.461845
66.400000 -5.596277
66.420000 -5.762287
66.440000 -5.973724
66.460000 -6.314496
66.480000 -6.718353
66.500000 -7.155944
66.520000 -7.713068
66.540000 -8.005360
66.560000 -8.105078
66.580000 -8.288564
66.600000 -8.536592
66.620000 -8.724769
66.640000 -8.792308
66.660000 -8.875264
66.680000 -8.992010
66.700000 -9.039999
66.720000 -8.920746
66.740000 -8.831545
66.760000 -8.637318
66.780000 -8.179408
66.800000 -7.837306
66.820000 -7.553780
66.840000 -7.341097
66.860000 -7.127125
66.880000 -6.820017
66.900000 -6.469331
66.920000 -6.107792
66.940000 -5.583422
66.960000 -5.033258
66.980000 -4.357021
67.000000 -3.605769
67.020000 -3.037750
67.040000 -2.514935
67.060000 -2.038442
67.080000 -1.647902
67.100000 -1.299232
67.120000 -0.975405
67.140000 -0.570175
67.160000 -0.093192
67.180000 0.365124
67.200000 0.825190
67.220000 1.294751
67.240000 1.694701
67.260000 1.948904
67.280000 2.209255
67.300000 2.435746
67.320000 2.636820
67.340000 2.932613
67.360000 3.260796
67.380000 3.611118
67.400000 4.017272
67.420000 4.345875
67.440000 4.656707
67.460000 4.950008
67.480000 5.120737
67.500000 5.355069
67.520000 5.631202
67.540000 5.906410
67.560000 6.244143
67.580000 6.624348
67.600000 6.955920
67.620000 7.264484
67.640000 7.489392
67.660000 7.639606
67.680000 7.815475
67.700000 7.936268
67.720000 8.060534
67.740000 8.245238
67.760000 8.382611
67.780000 8.500715
67.800000 8.585170
67.820000 8.546787
67.840000 8.427268
67.860000 8.287052
67.880000 8.036252
67.900000 7.808193
67.920000 7.671870
67.940000 7.489798
67.960000 7.419193
67.980000 7.345928
68.000000 7.179680
68.020000 7.044449
68.040000 6.792963
68.060000 6.422728
68.080000 6.123924
68.100000 5.755748
68.120000 5.328001
68.140000 5.032866
68.160000 4.589127
68.180000 4.157501
68.200000 3.609676
68.220000 2.964849
68.240000 2.271444
68.260000 1.505292
68.280000 0.740960
68.300000 0.034532
68.320000 -0.589808
68.340000 -1.137003
68.360000 -1.566361
68.380000 -1.962950
68.400000 -2.340719
68.420000 -2.732015
68.440000 -3.223673
68.460000 -3.681093
68.480000 -4.144842
68.500000 -4.555729
68.520000 -4.934786
68.540000 -5.141252
68.560000 -5.321993
68.580000 -5.507370
68.600000 -5.605548
68.620000 -5.844585
68.640000 -6.072084
68.660000 -6.380214
68.680000 -6.868847
68.700000 -7.353616
68.720000 -7.792089
68.740000 -8.054036
68.760000 -8.199839
68.780000 -8.413068
68.800000 -8.635120
68.820000 -8.759246
68.840000 -8.872561
68.860000 -8.983748
68.880000 -9.050642
68.900000 -9.029721
68.920000 -8.979827
68.940000 -8.832987
68.960000 -8.504272
68.980000 -8.149315
69.000000 -7.782175
69.020000 -7.474465
69.040000 -7.282507
69.060000 -7.052207
69.080000 -6.748768
69.100000 -6.303671
69.120000 -5.897070
69.140000 -5.468497
69.160000 -4.819483
69.180000 -4.084278
69.200000 -3.471210
69.220000 -2.894580
69.240000 -2.384409
69.260000 -1.896364
69.280000 -1.568601
69.300000 -1.253413
69.320000 -0.816410
69.340000 -0.440350
69.360000 -0.015068
69.380000 0.494627
69.400000 0.952089
69.420000 1.332532
69.440000 1.697488
69.460000 2.000003
69.480000 2.238564
69.500000 2.436222
69.520000 2.653876
69.540000 3.045214
69.560000 3.373733
69.580000 3.656027
69.600000 4.130517
69.620000 4.501928
69.640000 4.710956
69.660000 5.000910
69.680000 5.259398
69.700000 5.487611
69.720000 5.768323
69.740000 6.032776
69.760000 6.432838
69.780000 6.773652
69.800000 7.030306
69.820000 7.381104
69.840000 7.555488
69.860000 7.691265
69.880000 7.830514
69.900000 7.976261
69.920000 8.115273
69.940000 8.207443
69.960000 8.357783
69.980000 8.486264
70.000000 8.477862
70.020000 8.372655
70.040000 8.284560
70.060000 8.134850
70.080000 7.885338
70.100000 7.642253
70.120000 7.564282
70.140000 7.442397
70.160000 7.293065
70.180000 7.257427
70.200000 7.128470
70.220000 6.927829
70.240000 6.679032
70.260000 6.315728
70.280000 6.078623
70.300000 5.687327
70.320000 5.280403
70.340000 5.020011
70.360000 4.637747
70.380000 4.101082
70.400000 3.520082
70.420000 2.950383
70.440000 2.219618
70.460000 1.410321
70.480000 0.649070
70.500000 -0.022994
70.520000 -0.579543
70.540000 -1.164912
70.560000 -1.614420
70.580000 -1.981420
70.600000 -2.418731
70.620000 -2.835878
70.640000 -3.338669
70.660000 -3.806199
70.680000 -4.261812
70.700000 -4.675570
70.720000 -4.988125
70.740000 -5.196439
70.760000 -5.429973
70.780000 -5.580832
70.800000 -5.699356
70.820000 -5.972968
70.840000 -6.246398
70.860000 -6.590530
70.880000 -7.014398
70.900000 -7.479324
70.920000 -7.965997
70.940000 -8.138504
70.960000 -8.257379
70.980000 -8.521636
71.000000 -8.742680
71.020000 -8.865447
71.040000 -8.930577
71.060000 -9.037352
71.080000 -9.101600
71.100000 -9.024595
71.120000 -8.902430
71.140000 -8.770980
71.160000 -8.423095
71.180000 -8.024041
71.200000 -7.690005
71.220000 -7.435857
71.240000 -7.209675
71.260000 -6.931750
71.280000 -6.594059
71.300000 -6.168259
71.320000 -5.728805
71.340000 -5.206424
71.360000 -4.599308
71.380000 -3.893034
71.400000 -3.247591
71.420000 -2.769096
71.440000 -2.245426
71.460000 -1.778470
71.480000 -1.450903
71.500000 -1.096071
71.520000 -0.744377
71.540000 -0.264776
71.560000 0.145313
71.580000 0.588842
71.600000 1.056526
71.620000 1.438552
71.640000 1.806588
71.660000 2.077791
71.680000 2.315863
71.700000 2.546862
71.720000 2.804580
71.740000 3.147705
71.760000 3.478114
71.780000 3.798469
71.800000 4.218836
71.820000 4.573569
71.840000 4.794781
71.860000 5.059626
71.880000 5.304559
71.900000 5.581294
71.920000 5.864386
71.940000 6.065656
71.960000 6.481696
71.980000 6.807793
72.000000 7.087258
72.020000 7.316381
72.040000 7.510565
72.060000 7.717465
72.080000 7.811946
72.100000 7.961824
72.120000 8.082729
72.140000 8.221110
72.160000 8.355823
72.180000 8.373509
72.200000 8.388492
72.220000 8.297022
72.240000 8.162786
72.260000 8.025189
72.280000 7.781405
72.300000 7.597890
72.320000 7.544944
72.340000 7.404602
72.360000 7.343547
72.380000 7.213358
72.400000 7.080102
72.420000 6.942715
72.440000 6.589480
72.460000 6.312703
72.480000 6.038560
72.500000 5.615602
72.520000 5.315678
72.540000 4.897831
72.560000 4.512389
72.580000 3.971649
72.600000 3.298283
72.620000 2.722492
72.640000 1.959631
72.660000 1.143585
72.680000 0.417258
72.700000 -0.228451
72.720000 -0.757260
72.740000 -1.295479
72.760000 -1.783091
72.780000 -2.094315
72.800000 -2.513086
72.820000 -2.998317
72.840000 -3.443638
72.860000 -3.916924
72.880000 -4.302856
72.900000 -4.742268
72.920000 -5.038481
72.940000 -5.174020
72.960000 -5.466130
72.980000 -5.548246
73.000000 -5.734813
73.020000 -5.984717
73.040000 -6.255290
73.060000 -6.678667
73.080000 -7.049869
73.100000 -7.568833
73.120000 -8.021548
73.140000 -8.151906
73.160000 -8.287360
73.180000 -8.628356
73.200000 -8.873961
73.220000 -8.922007
73.240000 -8.954046
73.260000 -9.070694
73.280000 -9.147321
73.300000 -8.998801
73.320000 -8.871693
73.340000 -8.704408
73.360000 -8.366479
73.380000 -7.993163
73.400000 -7.619134
73.420000 -7.478022
73.440000 -7.165663
73.460000 -6.861341
73.480000 -6.528047
73.500000 -6.051821
73.520000 -5.625026
73.540000 -5.067650
73.560000 -4.449220
73.580000 -3.750914
73.600000 -3.112486
73.620000 -2.670372
73.640000 -2.160621
73.660000 -1.677995
73.680000 -1.330306
73.700000 -1.012639
73.720000 -0.614720
73.740000 -0.144823
73.760000 0.296339
73.780000 0.701009
73.800000 1.119457
73.820000 1.579580
73.840000 1.902553
73.860000 2.146170
73.880000 2.418801
73.900000 2.630672
73.920000 2.907309
73.940000 3.224723
73.960000 3.515993
73.980000 3.888133
74.000000 4.254433
74.020000 4.567618
74.040000 4.839913
74.060000 5.054459
74.080000 5.324878
74.100000 5.624634
74.120000 5.813161
74.140000 6.105972
74.160000 6.493249
74.180000 6.810019
74.200000 7.107058
74.220000 7.297560
74.240000 7.546232
74.260000 7.758929
74.280000 7.833385
74.300000 8.011452
74.320000 8.185948
74.340000 8.334215
74.360000 8.438008
74.380000 8.468634
74.400000 8.477554
74.420000 8.385888
74.440000 8.249691
74.460000 8.071498
74.480000 7.850483
74.500000 7.678284
74.520000 7.570766
74.540000 7.463234
74.560000 7.331462
74.580000 7.179778
74.600000 7.043049
74.620000 6.851357
74.640000 6.510123
74.660000 6.184251
74.680000 5.906746
74.700000 5.529117
74.720000 5.155465
74.740000 4.698984
74.760000 4.268380
74.780000 3.722095
74.800000 3.078766
74.820000 2.378780
74.840000 1.647314
74.860000 0.936993
74.880000 0.186203
74.900000 -0.403241
74.920000 -0.982378
74.940000 -1.443789
74.960000 -1.841191
74.980000 -2.294564
75.000000 -2.612034
75.020000 -3.131769
75.040000 -3.585030
75.060000 -3.956861
75.080000 -4.424406
75.100000 -4.782192
75.120000 -5.021621
75.140000 -5.213215
75.160000 -5.382810
75.180000 -5.538821
75.200000 -5.738537
75.220000 -5.929599
75.240000 -6.298252
75.260000 -6.708761
75.280000 -7.141409
75.300000 -7.658525
75.320000 -7.963378
75.340000 -8.157381
75.360000 -8.333739
75.380000 -8.613148
75.400000 -8.887082
75.420000 -8.889253
75.440000 -8.977810
75.460000 -9.069784
75.480000 -9.083662
75.500000 -8.984140
75.520000 -8.819166
75.540000 -8.647499
75.560000 -8.252506
75.580000 -7.870410
75.600000 -7.597372
75.620000 -7.427413
75.640000 -7.145330
75.660000 -6.804250
75.680000 -6.425543
75.700000 -6.007556
75.720000 -5.504975
75.740000 -4.908964
75.760000 -4.249377
75.780000 -3.576348
75.800000 -2.976738
75.820000 -2.503606
75.840000 -2.055498
75.860000 -1.667325
75.880000 -1.272220
75.900000 -0.989086
75.920000 -0.587567
75.940000 -0.104115
75.960000 0.357198
75.980000 0.809241
76.000000 1.173398
76.020000 1.640760
76.040000 1.951327
76.060000 2.117421
76.080000 2.394800
76.100000 2.634803
76.120000 2.938732
76.140000 3.253136
76.160000 3.591177
76.180000 3.997359
76.200000 4.349025
76.220000 4.623057
76.240000 4.891866
76.260000 5.135497
76.280000 5.371131
76.300000 5.650274
76.320000 5.908972
76.340000 6.235769
76.360000 6.575113
76.380000 6.939550
76.400000 7.229518
76.420000 7.407851
76.440000 7.633879
76.460000 7.804650
76.480000 7.934587
76.500000 8.071666
76.520000 8.252968
76.540000 8.456353
76.560000 8.524185
76.580000 8.562750
76.600000 8.534408
76.620000 8.446606
76.640000 8.272867
76.660000 8.003624
76.680000 7.816833
76.700000 7.668677
76.720000 7.501715
76.740000 7.389268
76.760000 7.296846
76.780000 7.168183
76.800000 6.995186
76.820000 6.725523
76.840000 6.414004
76.860000 6.105608
76.880000 5.755692
76.900000 5.395035
76.920000 5.023105
76.940000 4.626334
76.960000 4.193322
76.980000 3.630947
77.000000 3.014407
77.020000 2.294087
77.040000 1.558113
77.060000 0.791064
77.080000 0.066306
77.100000 -0.526471
77.120000 -1.104193
77.140000 -1.530050
77.160000 -1.934075
77.180000 -2.392643
77.200000 -2.737224
77.220000 -3.208633
77.240000 -3.727192
77.260000 -4.136790
77.280000 -4.569592
77.300000 -4.906485
77.320000 -5.097505
77.340000 -5.363541
77.360000 -5.461845
77.380000 -5.586335
77.400000 -5.846209
77.420000 -6.074170
77.440000 -6.433973
77.460000 -6.864898
77.480000 -7.365393
77.500000 -7.860215
77.520000 -8.086734
77.540000 -8.224751
77.560000 -8.473171
77.580000 -8.703792
77.600000 -8.862885
77.620000 -8.978174
77.640000 -8.975514
77.660000 -9.096209
77.680000 -9.111122
77.700000 -8.953836
77.720000 -8.815539
77.740000 -8.469488
77.760000 -8.115427
77.780000 -7.731833
77.800000 -7.416715
77.820000 -7.245440
77.840000 -6.993337
77.860000 -6.640298
77.880000 -6.188620
77.900000 -5.812811
77.920000 -5.343727
77.940000 -4.687753
77.960000 -3.991029
77.980000 -3.418544
78.000000 -2.861000
78.020000 -2.372688
78.040000 -1.967921
78.060000 -1.600459
78.080000 -1.290298
78.100000 -0.924236
78.120000 -0.532492
78.140000 -0.073336
78.160000 0.425968
78.180000 0.822992
78.200000 1.237141
78.220000 1.658783
78.240000 1.940334
78.260000 2.130038
78.280000 2.361794
78.300000 2.680426
78.320000 3.016409
78.340000 3.302764
78.360000 3.698653
78.380000 4.123207
78.400000 4.491538
78.420000 4.723770
78.440000 4.987467
78.460000 5.274886
78.480000 5.459730
78.500000 5.744685
78.520000 6.058486
78.540000 6.372022
78.560000 6.747396
78.580000 7.087370
78.600000 7.320848
78.620000 7.551511
78.640000 7.691307
78.660000 7.875003
78.680000 8.028088
78.700000 8.112542
78.720000 8.304024
78.740000 8.498293
78.760000 8.565705
78.780000 8.545820
78.800000 8.485340
78.820000 8.405184
78.840000 8.158473
78.860000 7.897745
78.880000 7.713656
78.900000 7.570010
78.920000 7.443629
78.940000 7.290993
78.960000 7.235609
78.980000 7.125501
79.000000 6.866341
79.020000 6.629348
79.040000 6.312816
79.060000 5.995975
79.080000 5.639786
79.100000 5.277099
79.120000 4.955945
79.140000 4.588399
79.160000 4.090607
79.180000 3.514481
79.200000 2.949081
79.220000 2.188446
79.240000 1.395716
79.260000 0.670173
79.280000 -0.065186
79.300000 -0.650008
79.320000 -1.173594
79.340000 -1.648994
79.360000 -2.056030
79.380000 -2.430088
79.400000 -2.899663
79.420000 -3.356733
79.440000 -3.834738
79.460000 -4.330177
79.480000 -4.673301
79.500000 -5.004985
79.520000 -5.244765
79.540000 -5.408856
79.560000 -5.533150
79.580000 -5.660119
79.600000 -5.884271
79.620000 -6.192737
79.640000 -6.525093
79.660000 -6.941427
79.680000 -7.478596
79.700000 -7.947849
79.720000 -8.098427
79.740000 -8.218072
79.760000 -8.467457
79.780000 -8.701132
79.800000 -8.811506
79.820000 -8.890443
79.840000 -8.998101
79.860000 -9.094906
79.880000 -9.015731
79.900000 -8.869914
79.920000 -8.752426
79.940000 -8.390873
79.960000 -7.921746
79.980000 -7.609975
80.000000 -7.350017
80.020000 -7.111091
80.040000 -6.896532
80.060000 -6.522852
80.080000 -6.139986
80.100000 -5.768925
80.120000 -5.220707
80.140000 -4.607402
80.160000 -3.921237
80.180000 -3.264381
80.200000 -2.792775
80.220000 -2.282003
80.240000 -1.840098
80.260000 -1.591903
80.280000 -1.229342
80.300000 -0.856250
80.320000 -0.444971
80.340000 0.024604
80.360000 0.480301
80.380000 0.962521
80.400000 1.389848
80.420000 1.718507
80.440000 2.020196
80.460000 2.254220
80.480000 2.485864
80.500000 2.735922
80.520000 3.109826
80.540000 3.462962
80.560000 3.803692
80.580000 4.245345
80.600000 4.579241
80.620000 4.807244
80.640000 5.056532
80.660000 5.283848
80.680000 5.519189
80.700000 5.776431
80.720000 6.023296
80.740000 6.443901
80.760000 6.772126
80.780000 7.061800
80.800000 7.355338
80.820000 7.530786
80.840000 7.716401
80.860000 7.842557
80.880000 7.976191
80.900000 8.186690
80.920000 8.312132
80.940000 8.485284
80.960000 8.598795
80.980000 8.609452
81.000000 8.529604
81.020000 8.394262
81.040000 8.224415
81.060000 7.952414
81.080000 7.708391
81.100000 7.649969
81.120000 7.502962
81.140000 7.391159
81.160000 7.300823
81.180000 7.135065
81.200000 6.983423
81.220000 6.651081
81.240000 6.257306
81.260000 6.005582
81.280000 5.587427
81.300000 5.219069
81.320000 4.885424
81.340000 4.442428
81.360000 3.954299
81.380000 3.337618
81.400000 2.697552
81.420000 1.953778
81.440000 1.108492
81.460000 0.395315
81.480000 -0.281272
81.500000 -0.867901
81.520000 -1.358214
81.540000 -1.816867
81.560000 -2.161112
81.580000 -2.566075
81.600000 -3.040369
81.620000 -3.500786
81.640000 -3.969212
81.660000 -4.432962
81.680000 -4.811319
81.700000 -5.091554
81.720000 -5.314277
81.740000 -5.465626
81.760000 -5.566744
81.780000 -5.725500
81.800000 -5.939248
81.820000 -6.238416
81.840000 -6.616703
81.860000 -7.036369
81.880000 -7.536458
81.900000 -7.986876
81.920000 -8.085544
81.940000 -8.219542
81.960000 -8.488378
81.980000 -8.704646
82.000000 -8.868850
82.020000 -8.887993
82.040000 -8.973133
82.060000 -9.095340
82.080000 -8.989307
82.100000 -8.843896
82.120000 -8.668434
82.140000 -8.271732
82.160000 -7.875521
82.180000 -7.509683
82.200000 -7.281176
82.220000 -7.107647
82.240000 -6.822090
82.260000 -6.427363
82.280000 -6.059411
82.300000 -5.635151
82.320000 -5.078685
82.340000 -4.404437
82.360000 -3.749905
82.380000 -3.144288
82.400000 -2.633697
82.420000 -2.153032
82.440000 -1.778147
82.460000 -1.470606
82.480000 -1.101799
82.500000 -0.725486
82.520000 -0.321321
82.540000 0.156838
82.560000 0.658998
82.580000 1.061217
82.600000 1.483685
82.620000 1.859703
82.640000 2.100127
82.660000 2.358783
82.680000 2.566635
82.700000 2.870690
82.720000 3.232957
82.740000 3.528078
82.760000 3.925648
82.780000 4.321803
82.800000 4.585990
82.820000 4.860106
82.840000 5.094999
82.860000 5.264299
82.880000 5.562347
82.900000 5.783418
82.920000 6.111027
82.940000 6.491751
82.960000 6.774787
82.980000 7.171950
83.000000 7.395402
83.020000 7.560095
83.040000 7.764979
83.060000 7.931787
83.080000 8.056445
83.100000 8.224933
83.120000 8.396180
83.140000 8.544154
83.160000 8.610782
83.180000 8.553368
83.200000 8.470048
83.220000 8.378900
83.240000 8.099057
83.260000 7.834253
83.280000 7.702510
83.300000 7.572810
83.320000 7.413578
83.340000 7.324335
83.360000 7.200657
83.380000 7.081922
83.400000 6.845139
83.420000 6.475535
83.440000 6.207846
83.460000 5.869595
83.480000 5.478285
83.500000 5.157426
83.520000 4.718140
83.540000 4.325990
83.560000 3.767746
83.580000 3.178750
83.600000 2.536122
83.620000 1.717975
83.640000 1.000134
83.660000 0.272506
83.680000 -0.318577
83.700000 -0.894675
83.720000 -1.410461
83.740000 -1.724767
83.760000 -2.175521
83.780000 -2.616795
83.800000 -3.054008
83.820000 -3.553942
83.840000 -3.995735
83.860000 -4.442750
83.880000 -4.881671
83.900000 -5.069247
83.920000 -5.299560
83.940000 -5.524356
83.960000 -5.609454
83.980000 -5.842260
84.000000 -6.083216
84.020000 -6.363018
84.040000 -6.808605
84.060000 -7.221284
84.080000 -7.728584
84.100000 -8.064091
84.120000 -8.126069
84.140000 -8.361914
84.160000 -8.636688
84.180000 -8.811618
84.200000 -8.889421
84.220000 -8.947731
84.240000 -9.041651
84.260000 -9.042590
84.280000 -8.942046
84.300000 -8.773823
84.320000 -8.557415
84.340000 -8.182643
84.360000 -7.773353
84.380000 -7.475739
84.400000 -7.308203
84.420000 -7.067107
84.440000 -6.737230
84.460000 -6.334759
84.480000 -5.924572
84.500000 -5.461957
84.520000 -4.883212
84.540000 -4.201262
84.560000 -3.584232
84.580000 -3.024825
84.600000 -2.512778
84.620000 -2.075117
84.640000 -1.707528
84.660000 -1.333317
84.680000 -1.004756
84.700000 -0.621119
84.720000 -0.162579
84.740000 0.283764
84.760000 0.745721
84.780000 1.134917
84.800000 1.525597
84.820000 1.901139
84.840000 2.114984
84.860000 2.331112
84.880000 2.634047
84.900000 2.962160
84.920000 3.263765
84.940000 3.588433
84.960000 3.971117
84.980000 4.352386
85.000000 4.624948
85.020000 4.859322
85.040000 5.153855
85.060000 5.409682
85.080000 5.641662
85.100000 5.961345
85.120000 6.301711
85.140000 6.629712
85.160000 6.963370
85.180000 7.260311
85.200000 7.498130
85.220000 7.704414
85.240000 7.849615
85.260000 8.038142
85.280000 8.219388
85.300000 8.329020
85.320000 8.498237
85.340000 8.598753
85.360000 8.606847
85.380000 8.547067
85.400000 8.402776
85.420000 8.257631
85.440000 7.986806
85.460000 7.786180
85.480000 7.628936
85.500000 7.482685
85.520000 7.348000
85.540000 7.252637
85.560000 7.139616
85.580000 6.947686
85.600000 6.652691
85.620000 6.391781
85.640000 6.103717
85.660000 5.720599
85.680000 5.368569
85.700000 5.031255
85.720000 4.644174
85.740000 4.188743
85.760000 3.562666
85.780000 3.031421
85.800000 2.349457
85.820000 1.526437
85.840000 0.828089
85.860000 0.137009
85.880000 -0.448570
85.900000 -1.004279
85.920000 -1.474540
85.940000 -1.848304
85.960000 -2.241295
85.980000 -2.699387
86.000000 -3.173569
86.020000 -3.590883
86.040000 -4.079041
86.060000 -4.528143
86.080000 -4.847699
86.100000 -5.076416
86.120000 -5.336445
86.140000 -5.498562
86.160000 -5.657122
86.180000 -5.842400
86.200000 -6.125100
86.220000 -6.501847
86.240000 -6.849775
86.260000 -7.334935
86.280000 -7.847500
86.300000 -8.065575
86.320000 -8.171370
86.340000 -8.404540
86.360000 -8.724125
86.380000 -8.806801
86.400000 -8.882335
86.420000 -9.005607
86.440000 -9.075974
86.460000 -9.017412
86.480000 -8.871133
86.500000 -8.815777
86.520000 -8.531355
86.540000 -8.057607
86.560000 -7.751185
86.580000 -7.514598
86.600000 -7.275085
86.620000 -7.004848
86.640000 -6.687630
86.660000 -6.264392
86.680000 -5.833214
86.700000 -5.338223
86.720000 -4.760752
86.740000 -4.069000
86.760000 -3.385888
86.780000 -2.933145
86.800000 -2.417023
86.820000 -1.933473
86.840000 -1.603904
86.860000 -1.280986
86.880000 -0.923354
86.900000 -0.464464
86.920000 -0.076514
86.940000 0.383244
86.960000 0.865800
86.980000 1.275091
87.000000 1.628339
87.020000 1.912398
87.040000 2.228790
87.060000 2.443797
87.080000 2.650879
87.100000 3.049975
87.120000 3.389949
87.140000 3.699549
87.160000 4.093842
87.180000 4.472661
87.200000 4.760850
87.220000 4.974360
87.240000 5.185699
87.260000 5.504317
87.280000 5.756028
87.300000 5.965588
87.320000 6.353033
87.340000 6.721084
87.360000 7.022926
87.380000 7.288598
87.400000 7.535575
87.420000 7.738708
87.440000 7.889441
87.460000 8.033899
87.480000 8.227272
87.500000 8.397133
87.520000 8.500169
87.540000 8.602968
87.560000 8.653926
87.580000 8.539505
87.600000 8.393394
87.620000 8.233713
87.640000 7.995460
87.660000 7.763060
87.680000 7.595720
87.700000 7.486242
87.720000 7.392657
87.740000 7.256978
87.760000 7.108431
87.780000 6.931148
87.800000 6.669789
87.820000 6.316806
87.840000 6.009657
87.860000 5.688601
87.880000 5.285599
87.900000 4.939127
87.920000 4.541012
87.940000 4.046385
87.960000 3.452474
87.980000 2.857471
88.000000 2.157079
88.020000 1.363830
88.040000 0.620251
88.060000 -0.071865
88.080000 -0.568313
88.100000 -1.155628
88.120000 -1.606452
88.140000 -1.976589
88.160000 -2.356360
88.180000 -2.776741
88.200000 -3.327690
88.220000 -3.733381
88.240000 -4.188057
88.260000 -4.627930
88.280000 -4.928569
88.300000 -5.171009
88.320000 -5.370389
88.340000 -5.503939
88.360000 -5.633470
88.380000 -5.866682
88.400000 -6.123420
88.420000 -6.526647
88.440000 -6.909849
88.460000 -7.409097
88.480000 -7.922390
88.500000 -7.994816
88.520000 -8.163472
88.540000 -8.414133
88.560000 -8.697533
88.580000 -8.784732
88.600000 -8.754723
88.620000 -8.958794
88.640000 -9.069630
88.660000 -8.970500
88.680000 -8.849035
88.700000 -8.751012
88.720000 -8.451998
88.740000 -8.016941
88.760000 -7.690635
88.780000 -7.508535
88.800000 -7.314826
88.820000 -6.961647
88.840000 -6.640004
88.860000 -6.287063
88.880000 -5.828117
88.900000 -5.290794
88.920000 -4.652366
88.940000 -3.970458
88.960000 -3.317201
88.980000 -2.819228
89.000000 -2.320232
89.020000 -1.919918
89.040000 -1.563490
89.060000 -1.215044
89.080000 -0.909799
89.100000 -0.417930
89.120000 0.077187
89.140000 0.498870
89.160000 0.980376
89.180000 1.412506
89.200000 1.805356
89.220000 2.076573
89.240000 2.270044
89.260000 2.541387
89.280000 2.835304
89.300000 3.118928
89.320000 3.468452
89.340000 3.848559
89.360000 4.234688
89.380000 4.599490
89.400000 4.807300
89.420000 5.094033
89.440000 5.306464
89.460000 5.532240
89.480000 5.823216
89.500000 6.061637
89.520000 6.444685
89.540000 6.807736
89.560000 7.126285
89.580000 7.376273
89.600000 7.566775
89.620000 7.776713
89.640000 7.948829
89.660000 8.047174
89.680000 8.205833
89.700000 8.411276
89.720000 8.542459
89.740000 8.608135
89.760000 8.599327
89.780000 8.525081
89.800000 8.423613
89.820000 8.157619
89.840000 7.908191
89.860000 7.705226
89.880000 7.556048
89.900000 7.449007
89.920000 7.324825
89.940000 7.193753
89.960000 7.082651
89.980000 6.896994
90.000000 6.621562
90.020000 6.227423
90.040000 5.915414
90.060000 5.601809
90.080000 5.254931
90.100000 4.812859
90.120000 4.428046
90.140000 3.998437
90.160000 3.394416
90.180000 2.751703
90.200000 1.981924
90.220000 1.296866
90.240000 0.566870
90.260000 -0.204547
90.280000 -0.725346
90.300000 -1.182430
90.320000 -1.661541
90.340000 -2.058957
90.360000 -2.447396
90.380000 -2.885212
90.400000 -3.373215
90.420000 -3.891045
90.440000 -4.302604
90.460000 -4.719148
90.480000 -5.060214
90.500000 -5.243182
90.520000 -5.432816
90.540000 -5.548134
90.560000 -5.716006
90.580000 -5.961051
90.600000 -6.187079
90.620000 -6.617991
90.640000 -7.106876
90.660000 -7.562840
90.680000 -7.975785
90.700000 -8.110680
90.720000 -8.272545
90.740000 -8.533595
90.760000 -8.709030
90.780000 -8.815455
90.800000 -8.883596
90.820000 -8.988439
90.840000 -9.081015
90.860000 -8.981311
90.880000 -8.874157
90.900000 -8.684146
90.920000 -8.306587
90.940000 -7.916509
90.960000 -7.575331
90.980000 -7.388106
91.000000 -7.176025
91.020000 -6.857154
91.040000 -6.529938
91.060000 -6.145251
91.080000 -5.682804
91.100000 -5.152189
91.120000 -4.464539
91.140000 -3.764707
91.160000 -3.156863
91.180000 -2.657895
91.200000 -2.170676
91.220000 -1.788510
91.240000 -1.455328
91.260000 -1.150166
91.280000 -0.787493
91.300000 -0.314334
91.320000 0.155269
91.340000 0.591796
91.360000 1.062267
91.380000 1.467931
91.400000 1.805482
91.420000 2.072946
91.440000 2.265633
91.460000 2.518379
91.480000 2.840961
91.500000 3.141837
91.520000 3.528414
91.540000 3.917820
91.560000 4.296457
91.580000 4.634736
91.600000 4.840306
91.620000 5.111243
91.640000 5.305035
91.660000 5.538779
91.680000 5.833256
91.700000 6.132928
91.720000 6.549220
91.740000 6.881996
91.760000 7.204242
91.780000 7.472476
91.800000 7.673187
91.820000 7.843790
91.840000 7.967999
91.860000 8.127330
91.880000 8.308617
91.900000 8.497425
91.920000 8.610894
91.940000 8.674105
91.960000 8.705893
91.980000 8.583643
92.000000 8.411164
92.020000 8.115889
92.040000 7.928734
92.060000 7.714286
92.080000 7.557253
92.100000 7.385571
92.120000 7.322318
92.140000 7.250019
92.160000 7.051059
92.180000 6.821712
92.200000 6.488880
92.220000 6.200425
92.240000 5.866738
92.260000 5.427775
92.280000 5.151614
92.300000 4.764813
92.320000 4.399242
92.340000 3.885346
92.360000 3.266187
92.380000 2.661536
92.400000 1.874883
92.420000 1.115550
92.440000 0.349118
92.460000 -0.316798
92.480000 -0.866192
92.500000 -1.313992
92.520000 -1.792991
92.540000 -2.196540
92.560000 -2.533671
92.580000 -3.051726
92.600000 -3.526328
92.620000 -4.052672
92.640000 -4.480503
92.660000 -4.820953
92.680000 -5.162173
92.700000 -5.381592
92.720000 -5.525504
92.740000 -5.620909
92.760000 -5.852077
92.780000 -6.092431
92.800000 -6.358747
92.820000 -6.769913
92.840000 -7.241575
92.860000 -7.787720
92.880000 -8.071638
92.900000 -8.152494
92.920000 -8.325337
92.940000 -8.624323
92.960000 -8.760282
92.980000 -8.769678
93.000000 -8.905623
93.020000 -9.029146
93.040000 -9.033137
93.060000 -8.931557
93.080000 -8.774733
93.100000 -8.575886
93.120000 -8.175557
93.140000 -7.721442
93.160000 -7.452185
93.180000 -7.238074
93.200000 -7.014454
93.220000 -6.753922
93.240000 -6.294149
93.260000 -5.932218
93.280000 -5.540166
93.300000 -4.934926
93.320000 -4.242026
93.340000 -3.543818
93.360000 -3.023173
93.380000 -2.577670
93.400000 -2.047782
93.420000 -1.693511
93.440000 -1.453381
93.460000 -1.108184
93.480000 -0.682496
93.500000 -0.258754
93.520000 0.201256
93.540000 0.683364
93.560000 1.102135
93.580000 1.502757
93.600000 1.871984
93.620000 2.078044
93.640000 2.302644
93.660000 2.548809
93.680000 2.894566
93.700000 3.250741
93.720000 3.538245
93.740000 3.958037
93.760000 4.442232
93.780000 4.650070
93.800000 4.850626
93.820000 5.138283
93.840000 5.372966
93.860000 5.629885
93.880000 5.840202
93.900000 6.211893
93.920000 6.652509
93.940000 6.964826
93.960000 7.245034
93.980000 7.505636
94.000000 7.707075
94.020000 7.865201
94.040000 7.982941
94.060000 8.147355
94.080000 8.299291
94.100000 8.511722
94.120000 8.621943
94.140000 8.638481
94.160000 8.636884
94.180000 8.522127
94.200000 8.353960
94.220000 8.064483
94.240000 7.799749
94.260000 7.689094
94.280000 7.574673
94.300000 7.375293
94.320000 7.301579
94.340000 7.230078
94.360000 7.075831
94.380000 6.785443
94.400000 6.418891
94.420000 6.145755
94.440000 5.885755
94.460000 5.428797
94.480000 5.034504
94.500000 4.752995
94.520000 4.371053
94.540000 3.743324
94.560000 3.129654
94.580000 2.476551
94.600000 1.747200
94.620000 0.955772
94.640000 0.149920
94.660000 -0.415970
94.680000 -0.934095
94.700000 -1.446604
94.720000 -1.879070
94.740000 -2.276107
94.760000 -2.642729
94.780000 -3.163290
94.800000 -3.687254
94.820000 -4.117144
94.840000 -4.614739
94.860000 -4.966014
94.880000 -5.189550
94.900000 -5.462013
94.920000 -5.582820
94.940000 -5.743005
94.960000 -5.917206
94.980000 -6.153387
95.000000 -6.577465
95.020000 -6.909401
95.040000 -7.346138
95.060000 -7.903808
95.080000 -8.144162
95.100000 -8.223407
95.120000 -8.383745
95.140000 -8.628006
95.160000 -8.838309
95.180000 -8.850211
95.200000 -8.892208
95.220000 -9.056901
95.240000 -9.008786
95.260000 -8.860798
95.280000 -8.744192
95.300000 -8.480215
95.320000 -8.054092
95.340000 -7.686686
95.360000 -7.429934
95.380000 -7.237122
95.400000 -6.973032
95.420000 -6.678401
95.440000 -6.288660
95.460000 -5.877759
95.480000 -5.421235
95.500000 -4.819315
95.520000 -4.135124
95.540000 -3.468858
95.560000 -2.931927
95.580000 -2.450519
95.600000 -1.983885
95.620000 -1.613468
95.640000 -1.302271
95.660000 -0.955926
95.680000 -0.484376
95.700000 -0.063533
95.720000 0.406798
95.740000 0.899772
95.760000 1.292259
95.780000 1.718143
95.800000 1.993673
95.820000 2.254654
95.840000 2.509683
95.860000 2.712172
95.880000 3.087812
95.900000 3.440851
95.920000 3.698331
95.940000 4.103098
95.960000 4.495067
95.980000 4.707358
96.000000 4.938651
96.020000 5.151292
96.040000 5.439496
96.060000 5.690520
96.080000 5.915232
96.100000 6.294513
96.120000 6.686537
96.140000 7.018109
96.160000 7.254178
96.180000 7.490107
96.200000 7.741369
96.220000 7.859137
96.240000 8.004674
96.260000 8.173975
96.280000 8.316879
96.300000 8.476140
96.320000 8.562582
96.340000 8.567834
96.360000 8.493266
96.380000 8.355347
96.400000 8.180893
96.420000 7.963854
96.440000 7.717339
96.460000 7.583873
96.480000 7.507947
96.500000 7.377477
96.520000 7.258071
96.540000 7.142585
96.560000 6.995648
96.580000 6.697516
96.600000 6.364306
96.620000 6.050490
96.640000 5.715824
96.660000 5.387557
96.680000 5.005209
96.700000 4.638167
96.720000 4.175776
96.740000 3.548229
96.760000 3.001355
96.780000 2.264666
96.800000 1.459137
96.820000 0.716986
96.840000 0.040540
96.860000 -0.538079
96.880000 -1.113156
96.900000 -1.554906
96.920000 -1.929832
96.940000 -2.309323
96.960000 -2.780060
96.980000 -3.301896
97.000000 -3.714267
97.020000 -4.183422
97.040000 -4.665866
97.060000 -4.969277
97.080000 -5.177129
97.100000 -5.395371
97.120000 -5.559168
97.140000 -5.690198
97.160000 -5.909785
97.180000 -6.171858
97.200000 -6.561879
97.220000 -6.948260
97.240000 -7.415371
97.260000 -7.927068
97.280000 -8.108999
97.300000 -8.205875
97.320000 -8.463326
97.340000 -8.773795
97.360000 -8.863109
97.380000 -8.887222
97.400000 -8.997261
97.420000 -9.086112
97.440000 -9.044130
97.460000 -8.843070
97.480000 -8.744024
97.500000 -8.463467
97.520000 -7.972831
97.540000 -7.697874
97.560000 -7.463080
97.580000 -7.248478
97.600000 -6.994107
97.620000 -6.610177
97.640000 -6.238598
97.660000 -5.827193
97.680000 -5.267212
97.700000 -4.659424
97.720000 -3.986618
97.740000 -3.322509
97.760000 -2.818247
97.780000 -2.335663
97.800000 -1.894221
97.820000 -1.507770
97.840000 -1.191000
97.860000 -0.807084
97.880000 -0.333616
97.900000 0.088081
97.920000 0.591306
97.940000 1.033588
97.960000 1.417897
97.980000 1.842983
98.000000 2.072106
98.020000 2.321156
98.040000 2.572026
98.060000 2.808949
98.080000 3.147915
98.100000 3.456017
98.120000 3.787238
98.140000 4.153384
98.160000 4.480083
98.180000 4.738291
98.200000 4.964711
98.220000 5.184564
98.240000 5.463749
98.260000 5.752191
98.280000 6.011631
98.300000 6.390548
98.320000 6.781382
98.340000 7.077203
98.360000 7.326463
98.380000 7.565431
98.400000 7.748259
98.420000 7.920248
98.440000 8.058405
98.460000 8.181495
98.480000 8.387568
98.500000 8.523149
98.520000 8.527644
98.540000 8.569808
98.560000 8.459952
98.580000 8.308281
98.600000 8.147663
98.620000 7.890589
98.640000 7.686294
98.660000 7.555866
98.680000 7.444680
98.700000 7.356458
98.720000 7.200013
98.740000 7.065076
98.760000 6.888564
98.780000 6.605864
98.800000 6.252433
98.820000 5.945479
98.840000 5.626987
98.860000 5.285024
98.880000 4.898672
98.900000 4.489087
98.920000 3.994180
98.940000 3.416947
98.960000 2.793041
98.980000 2.019762
99.000000 1.278703
99.020000 0.571071
99.040000 -0.063883
99.060000 -0.618459
99.080000 -1.194739
99.100000 -1.618047
99.120000 -1.956438
99.140000 -2.384591
99.160000 -2.914465
99.180000 -3.392175
99.200000 -3.789101
99.220000 -4.252640
99.240000 -4.719232
99.260000 -5.023988
99.280000 -5.184046
99.300000 -5.362183
99.320000 -5.594737
99.340000 -5.786079
99.360000 -5.952705
99.380000 -6.291264
99.400000 -6.687504
99.420000 -7.135023
99.440000 -7.628866
99.460000 -7.986610
99.480000 -8.188006
99.500000 -8.348303
99.520000 -8.600139
99.540000 -8.863865
99.560000 -8.933153
99.580000 -8.926446
99.600000 -9.040167
99.620000 -9.083438
99.640000 -8.969758
99.660000 -8.842944
99.680000 -8.627894
99.700000 -8.288312
99.720000 -7.893838
99.740000 -7.585694
99.760000 -7.431811
99.780000 -7.198556
99.800000 -6.883173
99.820000 -6.494467
99.840000 -6.123560
99.860000 -5.672007
99.880000 -5.109464
99.900000 -4.472745
99.920000 -3.788191
99.940000 -3.203718
99.960000 -2.711934
99.980000 -2.222166
100.000000 -1.831682
100.020000 -1.462750
100.040000 -1.085401
100.060000 -0.715138
100.080000 -0.285585
100.100000 0.228311
100.120000 0.668997
100.140000 1.091800
100.160000 1.528621
100.180000 1.857378
100.200000 2.120992
100.220000 2.367927
100.240000 2.582683
100.260000 2.890617
100.280000 3.216727
100.300000 3.548257
100.320000 3.897431
100.340000 4.273631
100.360000 4.568192
100.380000 4.810688
100.400000 5.090812
100.420000 5.291214
100.440000 5.563958
100.460000 5.865170
100.480000 6.165486
100.500000 6.508541
100.520000 6.856958
100.540000 7.168379
100.560000 7.408831
100.580000 7.579896
100.600000 7.773003
100.620000 7.940413
100.640000 8.076497
100.660000 8.240729
100.680000 8.382023
100.700000 8.512604
100.720000 8.576152
100.740000 8.497607
100.760000 8.400409
100.780000 8.264703
100.800000 8.019560
100.820000 7.798335
100.840000 7.609933
100.860000 7.514584
100.880000 7.350773
100.900000 7.240048
100.920000 7.149195
100.940000 6.985061
100.960000 6.770656
100.980000 6.452863
101.000000 6.152925
101.020000 5.904617
101.040000 5.503743
101.060000 5.190166
101.080000 4.836077
101.100000 4.422599
101.120000 3.888049
101.140000 3.302946
101.160000 2.652532
101.180000 1.891855
101.200000 1.153695
101.220000 0.418112
101.240000 -0.191706
101.260000 -0.764542
101.280000 -1.259323
101.300000 -1.666275
101.320000 -2.083001
101.340000 -2.516405
101.360000 -2.984776
101.380000 -3.455023
101.400000 -3.922245
101.420000 -4.361362
101.440000 -4.757336
101.460000 -5.019829
101.480000 -5.197391
101.500000 -5.450376
101.520000 -5.565624
101.540000 -5.754725
101.560000 -6.016126
101.580000 -6.330810
101.600000 -6.779100
101.620000 -7.196176
101.640000 -7.738764
101.660000 -8.068081
101.680000 -8.145940
101.700000 -8.404204
101.720000 -8.666067
101.740000 -8.870264
101.760000 -8.961776
101.780000 -8.966747
101.800000 -9.165749
101.820000 -9.155975
101.840000 -8.979477
101.860000 -8.905525
101.880000 -8.674259
101.900000 -8.250615
101.920000 -7.838244
101.940000 -7.571214
101.960000 -7.436502
101.980000 -7.129016
102.000000 -6.789966
102.020000 -6.470115
102.040000 -6.050771
102.060000 -5.587357
102.080000 -4.985002
102.100000 -4.331941
102.120000 -3.673741
102.140000 -3.050311
102.160000 -2.606152
102.180000 -2.138790
102.200000 -1.712178
102.220000 -1.401107
102.240000 -1.063136
102.260000 -0.644197
102.280000 -0.138143
102.300000 0.308900
102.320000 0.758744
102.340000 1.225379
102.360000 1.667521
102.380000 1.958637
102.400000 2.177061
102.420000 2.466973
102.440000 2.696138
102.460000 2.971430
102.480000 3.299725
102.500000 3.681387
102.520000 4.026780
102.540000 4.390223
102.560000 4.688537
102.580000 4.945695
102.600000 5.158056
102.620000 5.341094
102.640000 5.668031
102.660000 5.926743
102.680000 6.198170
102.700000 6.613874
102.720000 6.939606
102.740000 7.232683
102.760000 7.439078
102.780000 7.608435
102.800000 7.821958
102.820000 7.934097
102.840000 8.059861
102.860000 8.253220
102.880000 8.433863
102.900000 8.500197
102.920000 8.572483
102.940000 8.557961
102.960000 8.403490
102.980000 8.244006
103.000000 8.031589
103.020000 7.776755
103.040000 7.611530
103.060000 7.459761
103.080000 7.358251
103.100000 7.302167
103.120000 7.136213
103.140000 6.962684
103.160000 6.766090
103.180000 6.432012
103.200000 6.117104
103.220000 5.793557
103.240000 5.437815
103.260000 5.113819
103.280000 4.740013
103.300000 4.307211
103.320000 3.751236
103.340000 3.180529
103.360000 2.490485
103.380000 1.715174
103.400000 0.963292
103.420000 0.234052
103.440000 -0.369703
103.460000 -0.903357
103.480000 -1.409425
103.500000 -1.818981
103.520000 -2.182943
103.540000 -2.648527
103.560000 -3.124683
103.580000 -3.644908
103.600000 -4.105843
103.620000 -4.526686
103.640000 -4.942908
103.660000 -5.168488
103.680000 -5.331026
103.700000 -5.507776
103.720000 -5.655217
103.740000 -5.835245
103.760000 -6.067224
103.780000 -6.432908
103.800000 -6.856076
103.820000 -7.318019
103.840000 -7.796752
103.860000 -8.068992
103.880000 -8.204712
103.900000 -8.360990
103.920000 -8.627684
103.940000 -8.847159
103.960000 -8.858473
103.980000 -8.948655
104.000000 -9.076800
104.020000 -9.032675
104.040000 -8.932145
104.060000 -8.784508
104.080000 -8.513136
104.100000 -8.084857
104.120000 -7.692679
104.140000 -7.458823
104.160000 -7.303330
104.180000 -7.032603
104.200000 -6.703663
104.220000 -6.356828
104.240000 -6.025158
104.260000 -5.464184
104.280000 -4.858034
104.300000 -4.233036
104.320000 -3.505575
104.340000 -2.982521
104.360000 -2.450799
104.380000 -2.014314
104.400000 -1.705176
104.420000 -1.281546
104.440000 -0.982700
104.460000 -0.580257
104.480000 -0.057218
104.500000 0.391618
104.520000 0.891188
104.540000 1.316737
104.560000 1.726153
104.580000 2.059391
104.600000 2.220192
104.620000 2.492403
104.640000 2.767919
104.660000 3.032961
104.680000 3.398981
104.700000 3.724293
104.720000 4.142238
104.740000 4.472563
104.760000 4.677965
104.780000 5.025206
104.800000 5.161417
104.820000 5.389756
104.840000 5.691192
104.860000 5.935383
104.880000 6.315056
104.900000 6.635943
104.920000 6.987848
104.940000 7.312292
104.960000 7.450477
104.980000 7.660289
105.000000 7.864655
105.020000 7.951615
105.040000 8.101718
105.060000 8.289993
105.080000 8.476252
105.100000 8.578588
105.120000 8.592578
105.140000 8.590575
105.160000 8.463354
105.180000 8.242451
105.200000 8.015359
105.220000 7.776181
105.240000 7.643191
105.260000 7.452241
105.280000 7.365827
105.300000 7.325357
105.320000 7.112268
105.340000 6.949759
105.360000 6.716267
105.380000 6.369347
105.400000 6.061945
105.420000 5.649938
105.440000 5.357674
105.460000 5.010600
105.480000 4.567534
105.500000 4.130069
105.520000 3.584540
105.540000 3.000291
105.560000 2.223903
105.580000 1.460915
105.600000 0.741562
105.620000 0.051070
105.640000 -0.588141
105.660000 -1.105020
105.680000 -1.532528
105.700000 -1.969770
105.720000 -2.357803
105.740000 -2.781489
105.760000 -3.271999
105.780000 -3.769272
105.800000 -4.224662
105.820000 -4.625116
105.840000 -4.954027
105.860000 -5.201578
105.880000 -5.406728
105.900000 -5.496251
105.920000 -5.664320
105.940000 -5.903511
105.960000 -6.144999
105.980000 -6.498710
106.000000 -6.920394
106.020000 -7.441739
106.040000 -7.883755
106.060000 -8.105022
106.080000 -8.244370
106.100000 -8.417998
106.120000 -8.710766
106.140000 -8.875362
106.160000 -8.927986
106.180000 -9.016403
106.200000 -9.081323
106.220000 -9.067110
106.240000 -8.942508
106.260000 -8.728536
106.280000 -8.430923
106.300000 -8.052006
106.320000 -7.666703
106.340000 -7.401619
106.360000 -7.240511
106.380000 -6.991629
106.400000 -6.623592
106.420000 -6.215688
106.440000 -5.854625
106.460000 -5.312457
106.480000 -4.688943
106.500000 -3.967588
106.520000 -3.360570
106.540000 -2.824549
106.560000 -2.299885
106.580000 -1.944998
106.600000 -1.570071
106.620000 -1.201503
106.640000 -0.856208
106.660000 -0.446609
106.680000 0.025864
106.700000 0.550318
106.720000 0.984185
106.740000 1.383309
106.760000 1.800889
106.780000 2.116623
106.800000 2.312530
106.820000 2.532831
106.840000 2.806723
106.860000 3.162366
106.880000 3.447755
106.900000 3.777912
106.920000 4.220881
106.940000 4.516226
106.960000 4.764995
106.980000 5.002423
107.000000 5.235481
107.020000 5.490608
107.040000 5.711427
107.060000 6.034191
107.080000 6.378127
107.100000 6.722092
107.120000 7.055708
107.140000 7.318551
107.160000 7.494854
107.180000 7.689851
107.200000 7.855524
107.220000 8.001706
107.240000 8.146262
107.260000 8.292359
107.280000 8.490759
107.300000 8.575886
107.320000 8.558549
107.340000 8.464881
107.360000 8.391825
107.380000 8.199615
107.400000 7.851827
107.420000 7.697328
107.440000 7.592611
107.460000 7.422526
107.480000 7.301761
107.500000 7.187830
107.520000 7.114466
107.540000 6.884769
107.560000 6.590922
107.580000 6.273508
107.600000 6.009083
107.620000 5.646703
107.640000 5.256500
107.660000 4.969403
107.680000 4.561667
107.700000 4.052966
107.720000 3.505855
107.740000 2.895938
107.760000 2.116637
107.780000 1.360189
107.800000 0.658424
107.820000 -0.064668
107.840000 -0.647684
107.860000 -1.194963
107.880000 -1.606438
107.900000 -1.989556
107.920000 -2.493916
107.940000 -2.914871
107.960000 -3.387302
107.980000 -3.887839
108.000000 -4.362665
108.020000 -4.767586
108.040000 -5.058534
108.060000 -5.287391
108.080000 -5.483424
108.100000 -5.647095
108.120000 -5.769849
108.140000 -6.041920
108.160000 -6.294639
108.180000 -6.641937
108.200000 -7.107717
108.220000 -7.559115
108.240000 -7.963112
108.260000 -8.162996
108.280000 -8.278314
108.300000 -8.537306
108.320000 -8.772647
108.340000 -8.891773
108.360000 -8.960320
108.380000 -9.060794
108.400000 -9.124733
108.420000 -9.053904
108.440000 -8.895106
108.460000 -8.715233
108.480000 -8.364491
108.500000 -7.964807
108.520000 -7.595678
108.540000 -7.355408
108.560000 -7.185505
108.580000 -6.871130
108.600000 -6.508975
108.620000 -6.106168
108.640000 -5.667036
108.660000 -5.191342
108.680000 -4.499758
108.700000 -3.816842
108.720000 -3.256203
108.740000 -2.686994
108.760000 -2.218133
108.780000 -1.822510
108.800000 -1.411665
108.820000 -1.113674
108.840000 -0.728343
108.860000 -0.260393
108.880000 0.173600
108.900000 0.680634
108.920000 1.083384
108.940000 1.493025
108.960000 1.886281
108.980000 2.147500
109.000000 2.379046
109.020000 2.585399
109.040000 2.915431
109.060000 3.222287
109.080000 3.525431
109.100000 3.904391
109.120000 4.257794
109.140000 4.590233
109.160000 4.829649
109.180000 5.036661
109.200000 5.304391
109.220000 5.576112
109.240000 5.782816
109.260000 6.119219
109.280000 6.457946
109.300000 6.797136
109.320000 7.151141
109.340000 7.338968
109.360000 7.550447
109.380000 7.765791
109.400000 7.890183
109.420000 8.025875
109.440000 8.186956
109.460000 8.361508
109.480000 8.469782
109.500000 8.549223
109.520000 8.482217
109.540000 8.411416
109.560000 8.302470
109.580000 8.032135
109.600000 7.825851
109.620000 7.649759
109.640000 7.514206
109.660000 7.394197
109.680000 7.275323
109.700000 7.149517
109.720000 7.063858
109.740000 6.832985
109.760000 6.494061
109.780000 6.229383
109.800000 5.951557
109.820000 5.560149
109.840000 5.230229
109.860000 4.815534
109.880000 4.451838
109.900000 3.922385
109.920000 3.289363
109.940000 2.646874
109.960000 1.922942
109.980000 1.153499
110.000000 0.416866
110.020000 -0.202195
110.040000 -0.797366
110.060000 -1.285845
110.080000 -1.707178
110.100000 -2.153396
110.120000 -2.560123
110.140000 -3.055969
110.160000 -3.509720
110.180000 -3.938489
110.200000 -4.445355
110.220000 -4.820211
110.240000 -5.044181
110.260000 -5.269635
110.280000 -5.531680
110.300000 -5.627631
110.320000 -5.809156
110.340000 -6.031026
110.360000 -6.350905
110.380000 -6.762660
110.400000 -7.139322
110.420000 -7.610507
110.440000 -8.021548
110.460000 -8.170138
110.480000 -8.309359
110.500000 -8.631983
110.520000 -8.833702
110.540000 -8.938573
110.560000 -9.061844
110.580000 -9.094822
110.600000 -9.109890
110.620000 -9.019092
110.640000 -8.889981
110.660000 -8.697911
110.680000 -8.287640
110.700000 -7.921634
110.720000 -7.626331
110.740000 -7.438392
110.760000 -7.150301
110.780000 -6.855474
110.800000 -6.467035
110.820000 -6.055448
110.840000 -5.581896
110.860000 -4.999552
110.880000 -4.377004
110.900000 -3.684342
110.920000 -3.107263
110.940000 -2.602316
110.960000 -2.104790
110.980000 -1.703958
111.000000 -1.347040
111.020000 -0.972800
111.040000 -0.551817
111.060000 -0.124378
111.080000 0.337929
111.100000 0.841448
111.120000 1.272402
111.140000 1.654190
111.160000 2.001795
111.180000 2.300389
111.200000 2.518968
111.220000 2.752530
111.240000 3.045816
111.260000 3.363216
111.280000 3.695292
111.300000 3.994936
111.320000 4.375324
111.340000 4.656273
111.360000 4.888631
111.380000 5.124322
111.400000 5.352717
111.420000 5.605183
111.440000 5.867088
111.460000 6.175555
111.480000 6.517923
111.500000 6.814304
111.520000 7.126999
111.540000 7.388400
111.560000 7.557883
111.580000 7.716471
111.600000 7.924995
111.620000 8.111520
111.640000 8.204656
111.660000 8.343276
111.680000 8.485928
111.700000 8.542011
111.720000 8.470762
111.740000 8.315143
111.760000 8.210566
111.780000 8.034992
111.800000 7.719552
111.820000 7.589488
111.840000 7.497864
111.860000 7.341545
111.880000 7.284453
111.900000 7.136129
111.920000 6.959911
111.940000 6.782768
111.960000 6.450273
111.980000 6.191182
112.000000 5.860101
112.020000 5.444677
112.040000 5.192896
112.060000 4.789319
112.080000 4.280633
112.100000 3.721002
112.120000 3.135410
112.140000 2.508941
112.160000 1.670714
112.180000 0.885699
112.200000 0.293119
112.220000 -0.343180
112.240000 -0.911325
112.260000 -1.435611
112.280000 -1.834735
112.300000 -2.171250
112.320000 -2.667991
112.340000 -3.202304
112.360000 -3.611118
112.380000 -4.062783
112.400000 -4.509574
112.420000 -4.871575
112.440000 -5.123510
112.460000 -5.294323
112.480000 -5.489222
112.500000 -5.633526
112.520000 -5.849374
112.540000 -6.097724
112.560000 -6.416622
112.580000 -6.816405
112.600000 -7.279216
112.620000 -7.781979
112.640000 -8.048253
112.660000 -8.175109
112.680000 -8.444310
112.700000 -8.709870
112.720000 -8.898551
112.740000 -8.958864
112.760000 -9.016571
112.780000 -9.157711
112.800000 -9.090719
112.820000 -8.957631
112.840000 -8.874143
112.860000 -8.563871
112.880000 -8.191213
112.900000 -7.834379
112.920000 -7.563946
112.940000 -7.410189
112.960000 -7.091431
112.980000 -6.755574
113.000000 -6.352445
113.020000 -5.926939
113.040000 -5.446917
113.060000 -4.806543
113.080000 -4.151200
113.100000 -3.520390
113.120000 -2.934952
113.140000 -2.470936
113.160000 -2.001543
113.180000 -1.631210
113.200000 -1.279810
113.220000 -0.879957
113.240000 -0.512285
113.260000 -0.033398
113.280000 0.454311
113.300000 0.898442
113.320000 1.328485
113.340000 1.736067
113.360000 2.048146
113.380000 2.308833
113.400000 2.521950
113.420000 2.751031
113.440000 3.114447
113.460000 3.394108
113.480000 3.693178
113.500000 4.082317
113.520000 4.411102
113.540000 4.672685
113.560000 4.911597
113.580000 5.111257
113.600000 5.396127
113.620000 5.662261
113.640000 5.861389
113.660000 6.247364
113.680000 6.626771
113.700000 6.914540
113.720000 7.217475
113.740000 7.414222
113.760000 7.657279
113.780000 7.822140
113.800000 7.956937
113.820000 8.144568
113.840000 8.331205
113.860000 8.465357
113.880000 8.556141
113.900000 8.601092
113.920000 8.549125
113.940000 8.406305
113.960000 8.234161
113.980000 8.015233
114.000000 7.766057
114.020000 7.648022
114.040000 7.465657
114.060000 7.366303
114.080000 7.317487
114.100000 7.050919
114.120000 6.941637
114.140000 6.740380
114.160000 6.327715
114.180000 6.066930
114.200000 5.710811
114.220000 5.388117
114.240000 5.052218
114.260000 4.557059
114.280000 4.102398
114.300000 3.618148
114.320000 2.991175
114.340000 2.183797
114.360000 1.484973
114.380000 0.810263
114.400000 0.084664
114.420000 -0.548918
114.440000 -1.078231
114.460000 -1.484217
114.480000 -1.896364
114.500000 -2.369005
114.520000 -2.770370
114.540000 -3.187516
114.560000 -3.737624
114.580000 -4.182301
114.600000 -4.526028
114.620000 -4.907438
114.640000 -5.151096
114.660000 -5.380513
114.680000 -5.457406
114.700000 -5.616414
114.720000 -5.957172
114.740000 -6.124890
114.760000 -6.420627
114.780000 -6.922494
114.800000 -7.455504
114.820000 -7.824325
114.840000 -8.010010
114.860000 -8.255769
114.880000 -8.512324
114.900000 -8.694018
114.920000 -8.864677
114.940000 -8.985344
114.960000 -9.071787
114.980000 -9.091559
115.000000 -9.073243
115.020000 -9.061648
115.040000 -8.822345
115.060000 -8.452460
115.080000 -8.225437
115.100000 -7.841843
115.120000 -7.474367
115.140000 -7.371862
115.160000 -7.099091
115.180000 -6.702067
115.200000 -6.254253
115.220000 -5.863167
115.240000 -5.411909
115.260000 -4.703997
115.280000 -3.928000
115.300000 -3.436300
115.320000 -2.911426
115.340000 -2.259233
115.360000 -1.929020
115.380000 -1.623382
115.400000 -1.182584
115.420000 -0.812265
115.440000 -0.411167
115.460000 0.013037
115.480000 0.596921
115.500000 1.071202
115.520000 1.372414
115.540000 1.801337
115.560000 2.197800
115.580000 2.352944
115.600000 2.480164
115.620000 2.875339
115.640000 3.219556
115.660000 3.416359
115.680000 3.765981
115.700000 4.215979
115.720000 4.534724
115.740000 4.720437
115.760000 4.962639
115.780000 5.264790
115.800000 5.498632
115.820000 5.635977
115.840000 6.005162
115.860000 6.441731
115.880000 6.650633
115.900000 7.014076
115.920000 7.344135
115.940000 7.532537
115.960000 7.690649
115.980000 7.840317
116.000000 8.065029
116.020000 8.191857
116.040000 8.311446
116.060000 8.512744
116.080000 8.605209
116.100000 8.576712
116.120000 8.481643
116.140000 8.413895
116.160000 8.224625
116.180000 7.880870
116.200000 7.728682
116.220000 7.663958
116.240000 7.436348
116.260000 7.317711
116.280000 7.255200
116.300000 7.166853
116.320000 6.926233
116.340000 6.573502
116.360000 6.344645
116.380000 6.081564
116.400000 5.616358
116.420000 5.274942
116.440000 4.955875
116.460000 4.571847
116.480000 4.012665
116.500000 3.431735
116.520000 2.862736
116.540000 2.101317
116.560000 1.267347
116.580000 0.577905
116.600000 -0.071683
116.620000 -0.722882
116.640000 -1.265596
116.660000 -1.675475
116.680000 -2.031020
116.700000 -2.527328
116.720000 -2.953506
116.740000 -3.368958
116.760000 -3.854511
116.780000 -4.342346
116.800000 -4.760234
116.820000 -4.986571
116.840000 -5.214013
116.860000 -5.489768
116.880000 -5.557390
116.900000 -5.675354
116.920000 -5.934725
116.940000 -6.251005
116.960000 -6.548940
116.980000 -6.980454
117.000000 -7.524247
117.020000 -7.955312
117.040000 -8.073767
117.060000 -8.203228
117.080000 -8.547445
117.100000 -8.752888
117.120000 -8.810456
117.140000 -8.894868
117.160000 -9.048261
117.180000 -9.106277
117.200000 -8.990007
117.220000 -8.899741
117.240000 -8.783752
117.260000 -8.416037
117.280000 -7.954682
117.300000 -7.693155
117.320000 -7.482489
117.340000 -7.190953
117.360000 -6.937996
117.380000 -6.569693
117.400000 -6.173300
117.420000 -5.731256
117.440000 -5.180195
117.460000 -4.579143
117.480000 -3.870208
117.500000 -3.226376
117.520000 -2.748091
117.540000 -2.241351
117.560000 -1.785597
117.580000 -1.470045
117.600000 -1.094629
117.620000 -0.708066
117.640000 -0.298188
117.660000 0.203609
117.680000 0.680480
117.700000 1.084855
117.720000 1.541953
117.740000 1.877921
117.760000 2.160369
117.780000 2.412248
117.800000 2.583985
117.820000 2.865509
117.840000 3.261538
117.860000 3.540415
117.880000 3.841613
117.900000 4.293838
117.920000 4.592124
117.940000 4.814035
117.960000 5.030681
117.980000 5.261989
118.000000 5.538779
118.020000 5.763954
118.040000 6.034485
118.060000 6.412463
118.080000 6.817987
118.100000 7.070020
118.120000 7.318537
118.140000 7.581184
118.160000 7.709427
118.180000 7.902422
118.200000 8.038002
118.220000 8.196030
118.240000 8.386322
118.260000 8.486208
118.280000 8.599411
118.300000 8.609256
118.320000 8.463312
118.340000 8.367151
118.360000 8.177588
118.380000 7.878098
118.400000 7.697930
118.420000 7.572152
118.440000 7.466189
118.460000 7.333591
118.480000 7.207000
118.500000 7.119647
118.520000 6.897162
118.540000 6.572718
118.560000 6.239284
118.580000 5.989450
118.600000 5.615546
118.620000 5.172577
118.640000 4.885060
118.660000 4.503076
118.680000 3.890009
118.700000 3.360780
118.720000 2.685482
118.740000 1.926653
118.760000 1.191182
118.780000 0.372616
118.800000 -0.235214
118.820000 -0.776305
118.840000 -1.348608
118.860000 -1.737384
118.880000 -2.121076
118.900000 -2.570052
118.920000 -3.002546
118.940000 -3.467696
118.960000 -3.974785
118.980000 -4.431603
119.000000 -4.800928
119.020000 -5.049348
119.040000 -5.307738
119.060000 -5.510619
119.080000 -5.599568
119.100000 -5.750468
119.120000 -6.018591
119.140000 -6.357220
119.160000 -6.656612
119.180000 -7.076447
119.200000 -7.660079
119.220000 -8.006929
119.240000 -8.127246
119.260000 -8.284770
119.280000 -8.556631
119.300000 -8.826672
119.320000 -8.879451
119.340000 -8.909334
119.360000 -9.107999
119.380000 -9.111752
119.400000 -8.995188
119.420000 -8.921405
119.440000 -8.666179
119.460000 -8.318210
119.480000 -7.948465
119.500000 -7.548361
119.520000 -7.391607
119.540000 -7.159459
119.560000 -6.853626
119.580000 -6.477761
119.600000 -6.050322
119.620000 -5.616610
119.640000 -5.072215
119.660000 -4.366362
119.680000 -3.665171
119.700000 -3.090235
119.720000 -2.585834
119.740000 -2.056114
119.760000 -1.662396
119.780000 -1.342153
119.800000 -0.962423
119.820000 -0.594625
119.840000 -0.153449
119.860000 0.347255
119.880000 0.766754
119.900000 1.232338
119.920000 1.641769
119.940000 1.952055
119.960000 2.245566
119.980000 2.445562
120.000000 2.654240
120.020000 2.970814
120.040000 3.278384
120.060000 3.550568
120.080000 3.939189
120.100000 4.322741
120.120000 4.597445
120.140000 4.816108
120.160000 5.054431
120.180000 5.294491
120.200000 5.555555
120.220000 5.782956
120.240000 6.073428
120.260000 6.496470
120.280000 6.848486
120.300000 7.116245
120.320000 7.367871
120.340000 7.574379
120.360000 7.805742
120.380000 7.952820
120.400000 8.028816
120.420000 8.248613
120.440000 8.426302
120.460000 8.510854
120.480000 8.572189
120.500000 8.529548
120.520000 8.464545
120.540000 8.321528
120.560000 8.055324
120.580000 7.857373
120.600000 7.679054
120.620000 7.552015
120.640000 7.420972
120.660000 7.309407
120.680000 7.227333
120.700000 7.025433
120.720000 6.820115
120.740000 6.525611
120.760000 6.162713
120.780000 5.868209
120.800000 5.488101
120.820000 5.145537
120.840000 4.774000
120.860000 4.268730
120.880000 3.732205
120.900000 3.192529
120.920000 2.467869
120.940000 1.678612
120.960000 0.949764
120.980000 0.249358
121.000000 -0.371887
121.020000 -0.968305
121.040000 -1.450259
121.060000 -1.792403
121.080000 -2.222670
121.100000 -2.680790
121.120000 -3.128912
121.140000 -3.558185
121.160000 -4.062293
121.180000 -4.509532
121.200000 -4.885732
121.220000 -5.122725
121.240000 -5.320145
121.260000 -5.553679
121.280000 -5.676321
121.300000 -5.841182
121.320000 -6.120129
121.340000 -6.412632
121.360000 -6.777111
121.380000 -7.262678
121.400000 -7.710225
121.420000 -8.018636
121.440000 -8.168514
121.460000 -8.372417
121.480000 -8.680589
121.500000 -8.833407
121.520000 -8.870152
121.540000 -9.005187
121.560000 -9.121919
121.580000 -9.049661
121.600000 -8.931627
121.620000 -8.866974
121.640000 -8.618974
121.660000 -8.197641
121.680000 -7.829212
121.700000 -7.600775
121.720000 -7.393791
121.740000 -7.092705
121.760000 -6.787362
121.780000 -6.391024
121.800000 -5.959062
121.820000 -5.426781
121.840000 -4.885816
121.860000 -4.203278
121.880000 -3.504244
121.900000 -2.957441
121.920000 -2.469984
121.940000 -1.962418
121.960000 -1.584509
121.980000 -1.233402
122.000000 -0.874720
122.020000 -0.453975
122.040000 0.003557
122.060000 0.408632
122.080000 0.900949
122.100000 1.357864
122.120000 1.688582
122.140000 2.008601
122.160000 2.307055
122.180000 2.530324
122.200000 2.740179
122.220000 3.049359
122.240000 3.355179
122.260000 3.679090
122.280000 4.039173
122.300000 4.362245
122.320000 4.635548
122.340000 4.888211
122.360000 5.108386
122.380000 5.356330
122.400000 5.623752
122.420000 5.859415
122.440000 6.225294
122.460000 6.572494
122.480000 6.826361
122.500000 7.160551
122.520000 7.421560
122.540000 7.603226
122.560000 7.781265
122.580000 7.950299
122.600000 8.163094
122.620000 8.314681
122.640000 8.392946
122.660000 8.543874
122.680000 8.614311
122.700000 8.495604
122.720000 8.382751
122.740000 8.244104
122.760000 8.013398
122.780000 7.812884
122.800000 7.632507
122.820000 7.522888
122.840000 7.431390
122.860000 7.269105
122.880000 7.113738
122.900000 7.000535
122.920000 6.712079
122.940000 6.387201
122.960000 6.145181
122.980000 5.755986
123.000000 5.426318
123.020000 5.091008
123.040000 4.647927
123.060000 4.203881
123.080000 3.589833
123.100000 2.989173
123.120000 2.323929
123.140000 1.470493
123.160000 0.777593
123.180000 0.115430
123.200000 -0.508392
123.220000 -1.027525
123.240000 -1.548576
123.260000 -1.900047
123.280000 -2.306887
123.300000 -2.782763
123.320000 -3.258289
123.340000 -3.735356
123.360000 -4.116079
123.380000 -4.569312
123.400000 -4.957234
123.420000 -5.108792
123.440000 -5.369507
123.460000 -5.522494
123.480000 -5.659390
123.500000 -5.954889
123.520000 -6.136177
123.540000 -6.472720
123.560000 -6.937002
123.580000 -7.330034
123.600000 -7.833063
123.620000 -8.046054
123.640000 -8.151766
123.660000 -8.463957
123.680000 -8.722893
123.700000 -8.863781
123.720000 -8.928140
123.740000 -9.014219
123.760000 -9.151088
123.780000 -9.063301
123.800000 -8.953836
123.820000 -8.835326
123.840000 -8.516707
123.860000 -8.191353
123.880000 -7.809901
123.900000 -7.615731
123.920000 -7.386748
123.940000 -7.057823
123.960000 -6.811447
123.980000 -6.312423
124.000000 -5.845635
124.020000 -5.360321
124.040000 -4.715620
124.060000 -4.067516
124.080000 -3.344956
124.100000 -2.807563
124.120000 -2.412682
124.140000 -1.873860
124.160000 -1.429884
124.180000 -1.116026
124.200000 -0.763646
124.220000 -0.304559
124.240000 0.180181
124.260000 0.634787
124.280000 1.042495
124.300000 1.478699
124.320000 1.848388
124.340000 2.166643
124.360000 2.381651
124.380000 2.590343
124.400000 2.868239
124.420000 3.155659
124.440000 3.492678
124.460000 3.780181
124.480000 4.101782
124.500000 4.495655
124.520000 4.722803
124.540000 4.923710
124.560000 5.147343
124.580000 5.390890
124.600000 5.688910
124.620000 5.909519
124.640000 6.213658
124.660000 6.623494
124.680000 6.944283
124.700000 7.168715
124.720000 7.416925
124.740000 7.616039
124.760000 7.820180
124.780000 7.979076
124.800000 8.137496
124.820000 8.329692
124.840000 8.482217
124.860000 8.543062
124.880000 8.561504
124.900000 8.454252
124.920000 8.340559
124.940000 8.225297
124.960000 7.945986
124.980000 7.742153
125.000000 7.638668
125.020000 7.543529
125.040000 7.404882
125.060000 7.255648
125.080000 7.131074
125.100000 6.986195
125.120000 6.699378
125.140000 6.319775
125.160000 6.066804
125.180000 5.750608
125.200000 5.357254
125.220000 4.939799
125.240000 4.537301
125.260000 4.043024
125.280000 3.414469
125.300000 2.751451
125.320000 1.997846
125.340000 1.277807
125.360000 0.563481
125.380000 -0.145299
125.400000 -0.688489
125.420000 -1.234677
125.440000 -1.645620
125.460000 -2.023178
125.480000 -2.498915
125.500000 -2.923175
125.520000 -3.383493
125.540000 -3.799099
125.560000 -4.267330
125.580000 -4.722047
125.600000 -4.946493
125.620000 -5.121815
125.640000 -5.373694
125.660000 -5.551396
125.680000 -5.677175
125.700000 -5.850256
125.720000 -6.163260
125.740000 -6.587590
125.760000 -6.949801
125.780000 -7.409419
125.800000 -7.872272
125.820000 -8.052300
125.840000 -8.233377
125.860000 -8.465875
125.880000 -8.740257
125.900000 -8.889911
125.920000 -8.909096
125.940000 -9.037212
125.960000 -9.080805
125.980000 -9.006867
126.000000 -8.938097
126.020000 -8.734194
126.040000 -8.404246
126.060000 -8.034781
126.080000 -7.720182
126.100000 -7.603198
126.120000 -7.311732
126.140000 -6.997846
126.160000 -6.667311
126.180000 -6.243751
126.200000 -5.792128
126.220000 -5.218719
126.240000 -4.553377
126.260000 -3.915817
126.280000 -3.250419
126.300000 -2.707019
126.320000 -2.244712
126.340000 -1.788146
126.360000 -1.419465
126.380000 -1.045029
126.400000 -0.646157
126.420000 -0.225258
126.440000 0.270461
126.460000 0.760285
126.480000 1.158428
126.500000 1.591371
126.520000 1.963790
126.540000 2.210137
126.560000 2.428002
126.580000 2.673355
126.600000 2.917139
126.620000 3.235310
126.640000 3.529380
126.660000 3.879927
126.680000 4.233176
126.700000 4.501676
126.720000 4.762685
126.740000 4.982818
126.760000 5.198414
126.780000 5.427257
126.800000 5.703305
126.820000 6.015034
126.840000 6.303237
126.860000 6.667409
126.880000 7.013558
126.900000 7.235077
126.920000 7.447340
126.940000 7.635784
126.960000 7.831957
126.980000 8.017389
127.000000 8.166035
127.020000 8.350851
127.040000 8.533063
127.060000 8.576936
127.080000 8.588307
127.100000 8.494316
127.120000 8.348779
127.140000 8.185654
127.160000 7.935428
127.180000 7.755876
127.200000 7.619260
127.220000 7.494294
127.240000 7.406422
127.260000 7.272452
127.280000 7.114018
127.300000 6.880344
127.320000 6.624376
127.340000 6.299246
127.360000 5.928787
127.380000 5.592006
127.400000 5.247888
127.420000 4.849660
127.440000 4.413035
127.460000 3.857815
127.480000 3.306097
127.500000 2.637226
127.520000 1.847240
127.540000 1.094727
127.560000 0.376789
127.580000 -0.255533
127.600000 -0.823118
127.620000 -1.326511
127.640000 -1.733057
127.660000 -2.139434
127.680000 -2.534301
127.700000 -3.012796
127.720000 -3.500099
127.740000 -3.929022
127.760000 -4.387367
127.780000 -4.786911
127.800000 -5.039924
127.820000 -5.266316
127.840000 -5.396981
127.860000 -5.560891
127.880000 -5.746239
127.900000 -5.925650
127.920000 -6.269013
127.940000 -6.657592
127.960000 -7.072400
127.980000 -7.588438
128.000000 -7.897927
128.020000 -8.076834
128.040000 -8.281465
128.060000 -8.502886
128.080000 -8.761248
128.100000 -8.848209
128.120000 -8.921363
128.140000 -9.068650
128.160000 -9.057503
128.180000 -8.946331
128.200000 -8.855715
128.220000 -8.625009
128.240000 -8.248193
128.260000 -7.871656
128.280000 -7.597918
128.300000 -7.441571
128.320000 -7.205264
128.340000 -6.872894
128.360000 -6.508443
128.380000 -6.158218
128.400000 -5.653117
128.420000 -5.074638
128.440000 -4.426016
128.460000 -3.725624
128.480000 -3.154944
128.500000 -2.641021
128.520000 -2.133497
128.540000 -1.770222
128.560000 -1.399006
128.580000 -1.022176
128.600000 -0.624270
128.620000 -0.155059
128.640000 0.342186
128.660000 0.779973
128.680000 1.228851
128.700000 1.657270
128.720000 1.943023
128.740000 2.216873
128.760000 2.433043
128.780000 2.651747
128.800000 2.960074
128.820000 3.239931
128.840000 3.567091
128.860000 3.940715
128.880000 4.258606
128.900000 4.530103
128.920000 4.778103
128.940000 4.977805
128.960000 5.203007
128.980000 5.504219
129.000000 5.721551
129.020000 6.064578
129.040000 6.446772
129.060000 6.790148
129.080000 7.083267
129.100000 7.328172
129.120000 7.537382
129.140000 7.740907
129.160000 7.922797
129.180000 8.046474
129.200000 8.289811
129.220000 8.499707
129.240000 8.586864
129.260000 8.686988
129.280000 8.658701
129.300000 8.529142
129.320000 8.426036
129.340000 8.137048
129.360000 7.918890
129.380000 7.753090
129.400000 7.617495
129.420000 7.491759
129.440000 7.383569
129.460000 7.255326
129.480000 7.092173
129.500000 6.865696
129.520000 6.521746
129.540000 6.185665
129.560000 5.892589
129.580000 5.504303
129.600000 5.156011
129.620000 4.772291
129.640000 4.318162
129.660000 3.788331
129.680000 3.208885
129.700000 2.466595
129.720000 1.733099
129.740000 0.995583
129.760000 0.238393
129.780000 -0.352311
129.800000 -0.958348
129.820000 -1.406722
129.840000 -1.800007
129.860000 -2.260451
129.880000 -2.658973
129.900000 -3.124179
129.920000 -3.628524
129.940000 -4.094486
129.960000 -4.533842
129.980000 -4.904175
130.000000 -5.138521
130.020000 -5.375696
130.040000 -5.548820
130.060000 -5.649672
130.080000 -5.861529
130.100000 -6.149830
130.120000 -6.420781
130.140000 -6.817889
130.160000 -7.299773
130.180000 -7.761058
130.200000 -8.060030
130.220000 -8.160588
130.240000 -8.335000
130.260000 -8.626550
130.280000 -8.793428
130.300000 -8.860196
130.320000 -8.938643
130.340000 -9.028306
130.360000 -9.020576
130.380000 -8.915173
130.400000 -8.789871
130.420000 -8.514789
130.440000 -8.128898
130.460000 -7.795282
130.480000 -7.502542
130.500000 -7.299549
130.520000 -7.071966
130.540000 -6.771958
130.560000 -6.390912
130.580000 -5.963053
130.600000 -5.494837
130.620000 -4.935080
130.640000 -4.234436
130.660000 -3.598921
130.680000 -2.997687
130.700000 -2.495652
130.720000 -2.071532
130.740000 -1.621226
130.760000 -1.247994
130.780000 -0.924698
130.800000 -0.487793
130.820000 -0.031284
130.840000 0.466676
130.860000 0.946866
130.880000 1.305268
130.900000 1.729234
130.920000 2.072974
130.940000 2.272550
130.960000 2.489350
130.980000 2.723893
131.000000 3.033885
131.020000 3.332619
131.040000 3.634056
131.060000 3.989951
131.080000 4.356965
131.100000 4.586228
131.120000 4.803883
131.140000 5.071165
131.160000 5.259132
131.180000 5.528893
131.200000 5.847162
131.220000 6.111797
131.240000 6.501357
131.260000 6.866621
131.280000 7.132335
131.300000 7.389114
131.320000 7.557295
131.340000 7.767485
131.360000 7.958981
131.380000 8.083625
131.400000 8.280330
131.420000 8.477316
131.440000 8.589987
131.460000 8.631885
131.480000 8.563212
131.500000 8.485438
131.520000 8.337982
131.540000 8.046754
131.560000 7.852794
131.580000 7.719090
131.600000 7.576185
131.620000 7.439624
131.640000 7.332289
131.660000 7.208429
131.680000 7.029438
131.700000 6.764228
131.720000 6.452387
131.740000 6.094741
131.760000 5.805151
131.780000 5.449494
131.800000 5.043046
131.820000 4.667630
131.840000 4.212843
131.860000 3.646813
131.880000 3.034501
131.900000 2.281302
131.920000 1.520528
131.940000 0.823174
131.960000 0.074974
131.980000 -0.569867
132.000000 -1.041752
132.020000 -1.531128
132.040000 -1.958567
132.060000 -2.325903
132.080000 -2.792565
132.100000 -3.251638
132.120000 -3.739949
132.140000 -4.186488
132.160000 -4.608592
132.180000 -4.988951
132.200000 -5.200808
132.220000 -5.381438
132.240000 -5.575090
132.260000 -5.713191
132.280000 -5.922682
132.300000 -6.174742
132.320000 -6.486597
132.340000 -6.937688
132.360000 -7.367045
132.380000 -7.829912
132.400000 -8.085516
132.420000 -8.201155
132.440000 -8.447307
132.460000 -8.670702
132.480000 -8.846024
132.500000 -8.895428
132.520000 -8.957491
132.540000 -9.142616
132.560000 -9.072599
132.580000 -8.872771
132.600000 -8.780041
132.620000 -8.529814
132.640000 -8.089815
132.660000 -7.711962
132.680000 -7.449021
132.700000 -7.314014
132.720000 -7.017591
132.740000 -6.660407
132.760000 -6.317157
132.780000 -5.900192
132.800000 -5.414135
132.820000 -4.783214
132.840000 -4.133934
132.860000 -3.466995
132.880000 -2.883377
132.900000 -2.389198
132.920000 -1.919133
132.940000 -1.519575
132.960000 -1.139216
132.980000 -0.814324
133.000000 -0.351386
133.020000 0.135679
133.040000 0.599232
133.060000 1.016448
133.080000 1.467161
133.100000 1.885007
133.120000 2.123526
133.140000 2.378948
133.160000 2.574407
133.180000 2.830486
133.200000 3.124683
133.220000 3.373047
133.240000 3.733409
133.260000 4.068076
133.280000 4.395783
133.300000 4.621153
133.320000 4.883590
133.340000 5.079847
133.360000 5.322007
133.380000 5.583870
133.400000 5.841686
133.420000 6.217845
133.440000 6.542009
133.460000 6.922732
133.480000 7.198752
133.500000 7.400247
133.520000 7.659225
133.540000 7.812562
133.560000 7.994004
133.580000 8.150225
133.600000 8.320506
133.620000 8.515083
133.640000 8.569164
133.660000 8.623819
133.680000 8.556785
133.700000 8.448161
133.720000 8.271424
133.740000 8.021660
133.760000 7.805168
133.780000 7.714202
133.800000 7.526795
133.820000 7.389786
133.840000 7.341223
133.860000 7.151057
133.880000 6.965064
133.900000 6.679326
133.920000 6.356478
133.940000 6.091730
133.960000 5.665874
133.980000 5.311967
134.000000 4.956716
134.020000 4.523941
134.040000 4.025226
134.060000 3.406319
134.080000 2.802130
134.100000 2.070664
134.120000 1.287189
134.140000 0.570119
134.160000 -0.107154
134.180000 -0.694749
134.200000 -1.185945
134.220000 -1.653447
134.240000 -2.052473
134.260000 -2.430788
134.280000 -2.895826
134.300000 -3.342576
134.320000 -3.843000
134.340000 -4.306063
134.360000 -4.671383
134.380000 -5.027166
134.400000 -5.240984
134.420000 -5.447660
134.440000 -5.580453
134.460000 -5.735037
134.480000 -5.972072
134.500000 -6.236105
134.520000 -6.579300
134.540000 -6.988786
134.560000 -7.509137
134.580000 -7.929602
134.600000 -8.097979
134.620000 -8.272671
134.640000 -8.529282
134.660000 -8.739977
134.680000 -8.880879
134.700000 -8.964311
134.720000 -9.050544
134.740000 -9.113223
134.760000 -9.016571
134.780000 -8.908353
134.800000 -8.725483
134.820000 -8.393352
134.840000 -7.998023
134.860000 -7.640629
134.880000 -7.439890
134.900000 -7.231548
134.920000 -6.918503
134.940000 -6.573180
134.960000 -6.156832
134.980000 -5.768155
135.000000 -5.225580
135.020000 -4.530971
135.040000 -3.884198
135.060000 -3.263246
135.080000 -2.727674
135.100000 -2.185575
135.120000 -1.776257
135.140000 -1.417631
135.160000 -1.009307
135.180000 -0.654797
135.200000 -0.222583
135.220000 0.279213
135.240000 0.744881
135.260000 1.176675
135.280000 1.595053
135.300000 1.981616
135.320000 2.233873
135.340000 2.414712
135.360000 2.623643
135.380000 2.908079
135.400000 3.185038
135.420000 3.453398
135.440000 3.786118
135.460000 4.184598
135.480000 4.437079
135.500000 4.659620
135.520000 4.923836
135.540000 5.113945
135.560000 5.401546
135.580000 5.614300
135.600000 5.918271
135.620000 6.306612
135.640000 6.631770
135.660000 6.977877
135.680000 7.249893
135.700000 7.430858
135.720000 7.679950
135.740000 7.876978
135.760000 7.977088
135.780000 8.168206
135.800000 8.370260
135.820000 8.527630
135.840000 8.572105
135.860000 8.552738
135.880000 8.517057
135.900000 8.402202
135.920000 8.165839
135.940000 7.909843
135.960000 7.766659
135.980000 7.649269
136.000000 7.423408
136.020000 7.351109
136.040000 7.249459
136.060000 7.099693
136.080000 6.869113
136.100000 6.560941
136.120000 6.288464
136.140000 5.945325
136.160000 5.574936
136.180000 5.216674
136.200000 4.812145
136.220000 4.411789
136.240000 3.844932
136.260000 3.285540
136.280000 2.643149
136.300000 1.868791
136.320000 1.158260
136.340000 0.422328
136.360000 -0.237343
136.380000 -0.758548
136.400000 -1.261535
136.420000 -1.706156
136.440000 -2.102829
136.460000 -2.530632
136.480000 -2.928734
136.500000 -3.438849
136.520000 -3.941499
136.540000 -4.300840
136.560000 -4.731303
136.580000 -4.990226
136.600000 -5.235327
136.620000 -5.474028
136.640000 -5.537449
136.660000 -5.777355
136.680000 -6.049160
136.700000 -6.305198
136.720000 -6.693175
136.740000 -7.116413
136.760000 -7.604276
136.780000 -8.029628
136.800000 -8.130326
136.820000 -8.295454
136.840000 -8.648451
136.860000 -8.866847
136.880000 -8.944804
136.900000 -8.959312
136.920000 -9.070863
136.940000 -9.125812
136.960000 -8.986884
136.980000 -8.845114
137.000000 -8.633355
137.020000 -8.302302
137.040000 -7.932487
137.060000 -7.622382
137.080000 -7.431152
137.100000 -7.192703
137.120000 -6.878734
137.140000 -6.479582
137.160000 -6.078329
137.180000 -5.592174
137.200000 -5.055565
137.220000 -4.411410
137.240000 -3.720876
137.260000 -3.173807
137.280000 -2.650753
137.300000 -2.195364
137.320000 -1.763388
137.340000 -1.333821
137.360000 -1.025074
137.380000 -0.578059
137.400000 -0.113245
137.420000 0.336991
137.440000 0.835749
137.460000 1.208350
137.480000 1.640970
137.500000 2.013740
137.520000 2.214212
137.540000 2.442691
137.560000 2.688982
137.580000 2.961684
137.600000 3.274645
137.620000 3.532573
137.640000 3.904237
137.660000 4.261714
137.680000 4.498567
137.700000 4.763651
137.720000 4.985254
137.740000 5.242762
137.760000 5.512397
137.780000 5.732726
137.800000 6.111965
137.820000 6.425010
137.840000 6.785933
137.860000 7.107647
137.880000 7.305066
137.900000 7.564072
137.920000 7.759839
137.940000 7.928510
137.960000 8.107557
137.980000 8.232901
138.000000 8.458243
138.020000 8.585982
138.040000 8.568968
138.060000 8.562218
138.080000 8.458817
138.100000 8.333879
138.120000 8.096214
138.140000 7.838426
138.160000 7.704554
138.180000 7.586702
138.200000 7.407011
138.220000 7.303680
138.240000 7.160551
138.260000 7.026749
138.280000 6.786143
138.300000 6.463996
138.320000 6.170597
138.340000 5.831982
138.360000 5.501502
138.380000 5.146181
138.400000 4.702877
138.420000 4.284708
138.440000 3.728228
138.460000 3.167828
138.480000 2.456625
138.500000 1.659105
138.520000 0.987629
138.540000 0.264720
138.560000 -0.376915
138.580000 -0.937833
138.600000 -1.413038
138.620000 -1.824317
138.640000 -2.237626
138.660000 -2.664995
138.680000 -3.151542
138.700000 -3.586374
138.720000 -4.027480
138.740000 -4.479635
138.760000 -4.813209
138.780000 -5.097967
138.800000 -5.297880
138.820000 -5.437997
138.840000 -5.648328
138.860000 -5.839586
138.880000 -6.051261
138.900000 -6.391220
138.920000 -6.775263
138.940000 -7.265437
138.960000 -7.740655
138.980000 -7.987142
139.000000 -8.176440
139.020000 -8.386868
139.040000 -8.646519
139.060000 -8.814405
139.080000 -8.893930
139.100000 -8.968022
139.120000 -9.044494
139.140000 -9.015857
139.160000 -8.923477
139.180000 -8.780041
139.200000 -8.545652
139.220000 -8.142775
139.240000 -7.808907
139.260000 -7.569282
139.280000 -7.321800
139.300000 -7.147752
139.320000 -6.785401
139.340000 -6.345009
139.360000 -6.005428
139.380000 -5.499710
139.400000 -4.899106
139.420000 -4.247571
139.440000 -3.573533
139.460000 -3.039123
139.480000 -2.538082
139.500000 -2.015925
139.520000 -1.666121
139.540000 -1.308573
139.560000 -0.886903
139.580000 -0.496910
139.600000 -0.065746
139.620000 0.462153
139.640000 0.910639
139.660000 1.311513
139.680000 1.739554
139.700000 2.046200
139.720000 2.284523
139.740000 2.522370
139.760000 2.691139
139.780000 3.057999
139.800000 3.326178
139.820000 3.590925
139.840000 3.998857
139.860000 4.325332
139.880000 4.567632
139.900000 4.803337
139.920000 5.060522
139.940000 5.306408
139.960000 5.540040
139.980000 5.826227
140.000000 6.174756
140.020000 6.561725
140.040000 6.858919
140.060000 7.171726
140.080000 7.465069
140.100000 7.634649
140.120000 7.794666
140.140000 8.001075
140.160000 8.165811
140.180000 8.316851
140.200000 8.512030
140.220000 8.574541
140.240000 8.650229
140.260000 8.611174
140.280000 8.448301
140.300000 8.335070
140.320000 8.074425
140.340000 7.816693
140.360000 7.699541
140.380000 7.549131
140.400000 7.367661
140.420000 7.297140
140.440000 7.179974
140.460000 6.951747
140.480000 6.715286
140.500000 6.409187
140.520000 6.088005
140.540000 5.759487
140.560000 5.322413
140.580000 5.011987
140.600000 4.644595
140.620000 4.089389
140.640000 3.544266
140.660000 2.993444
140.680000 2.248619
140.700000 1.474316
140.720000 0.740232
140.740000 0.078937
140.760000 -0.515492
140.780000 -1.105958
140.800000 -1.556166
140.820000 -1.909751
140.840000 -2.326505
140.860000 -2.803614
140.880000 -3.223309
140.900000 -3.652610
140.920000 -4.135950
140.940000 -4.553895
140.960000 -4.886783
140.980000 -5.104731
141.000000 -5.301044
141.020000 -5.492876
141.040000 -5.605856
141.060000 -5.809310
141.080000 -6.113688
141.100000 -6.420809
141.120000 -6.826823
141.140000 -7.364762
141.160000 -7.831999
141.180000 -8.048113
141.200000 -8.158627
141.220000 -8.467079
141.240000 -8.729811
141.260000 -8.802446
141.280000 -8.889449
141.300000 -8.981059
141.320000 -9.116556
141.340000 -8.996057
141.360000 -8.881789
141.380000 -8.836194
141.400000 -8.454280
141.420000 -8.049527
141.440000 -7.739254
141.460000 -7.475599
141.480000 -7.339332
141.500000 -7.012886
141.520000 -6.651445
141.540000 -6.358438
141.560000 -5.901397
141.580000 -5.402471
141.600000 -4.818166
141.620000 -4.080203
141.640000 -3.470608
141.660000 -2.919842
141.680000 -2.377828
141.700000 -1.961900
141.720000 -1.553954
141.740000 -1.214848
141.760000 -0.861137
141.780000 -0.406294
141.800000 0.064163
141.820000 0.546145
141.840000 0.999000
141.860000 1.435429
141.880000 1.838194
141.900000 2.108977
141.920000 2.337260
141.940000 2.552968
141.960000 2.779990
141.980000 3.094282
142.000000 3.349703
142.020000 3.697491
142.040000 4.065303
142.060000 4.376192
142.080000 4.617246
142.100000 4.861913
142.120000 5.088375
142.140000 5.317498
142.160000 5.577219
142.180000 5.865506
142.200000 6.231988
142.220000 6.609113
142.240000 6.930994
142.260000 7.249025
142.280000 7.481102
142.300000 7.668579
142.320000 7.855160
142.340000 8.017095
142.360000 8.168906
142.380000 8.349409
142.400000 8.503628
142.420000 8.611972
142.440000 8.657679
142.460000 8.570354
142.480000 8.470832
142.500000 8.276592
142.520000 8.009631
142.540000 7.823723
142.560000 7.634915
142.580000 7.491423
142.600000 7.369271
142.620000 7.289718
142.640000 7.128035
142.660000 6.925841
142.680000 6.667801
142.700000 6.332084
142.720000 6.053991
142.740000 5.628751
142.760000 5.282630
142.780000 4.959180
142.800000 4.520791
142.820000 4.052672
142.840000 3.463060
142.860000 2.863618
142.880000 2.168225
142.900000 1.396948
142.920000 0.604203
142.940000 -0.043592
142.960000 -0.638988
142.980000 -1.173566
143.000000 -1.614056
143.020000 -2.069557
143.040000 -2.401857
143.060000 -2.844868
143.080000 -3.353344
143.100000 -3.844190
143.120000 -4.275130
143.140000 -4.674184
143.160000 -5.046603
143.180000 -5.238827
143.200000 -5.460067
143.220000 -5.582582
143.240000 -5.686893
143.260000 -5.978247
143.280000 -6.220659
143.300000 -6.551727
143.320000 -7.004232
143.340000 -7.497220
143.360000 -7.962496
143.380000 -8.153544
143.400000 -8.230338
143.420000 -8.537698
143.440000 -8.808187
143.460000 -8.865713
143.480000 -8.939077
143.500000 -9.002204
143.520000 -9.087204
143.540000 -9.011516
143.560000 -8.858557
143.580000 -8.707265
143.600000 -8.354548
143.620000 -7.946714
143.640000 -7.591113
143.660000 -7.369327
143.680000 -7.168463
143.700000 -6.888326
143.720000 -6.547848
143.740000 -6.112539
143.760000 -5.726733
143.780000 -5.232876
143.800000 -4.553083
143.820000 -3.866203
143.840000 -3.240393
143.860000 -2.754644
143.880000 -2.244081
143.900000 -1.774227
143.920000 -1.468029
143.940000 -1.136807
143.960000 -0.746407
143.980000 -0.299868
144.000000 0.154863
144.020000 0.601767
144.040000 1.077181
144.060000 1.495069
144.080000 1.828742
144.100000 2.102493
144.120000 2.310962
144.140000 2.499923
144.160000 2.774263
144.180000 3.073795
144.200000 3.369406
144.220000 3.699129
144.240000 4.103756
144.260000 4.435426
144.280000 4.620649
144.300000 4.865330
144.320000 5.122529
144.340000 5.405789
144.360000 5.652221
144.380000 5.946417
144.400000 6.378309
144.420000 6.759229
144.440000 7.098572
144.460000 7.363726
144.480000 7.592499
144.500000 7.841171
144.520000 7.969764
144.540000 8.129836
144.560000 8.299333
144.580000 8.461072
144.600000 8.641449
144.620000 8.688865
144.640000 8.648647
144.660000 8.574219
144.680000 8.457459
144.700000 8.227048
144.720000 7.905096
144.740000 7.700969
144.760000 7.638752
144.780000 7.445800
144.800000 7.295306
144.820000 7.198682
144.840000 7.084681
144.860000 6.878425
144.880000 6.518511
144.900000 6.167209
144.920000 5.944135
144.940000 5.505844
144.960000 5.148800
144.980000 4.799234
145.000000 4.389411
145.020000 3.932495
145.040000 3.285120
145.060000 2.688758
145.080000 1.967837
145.100000 1.162083
145.120000 0.487415
145.140000 -0.210008
145.160000 -0.783586
145.180000 -1.243611
145.200000 -1.713242
145.220000 -2.074515
145.240000 -2.483091
145.260000 -2.964401
145.280000 -3.409946
145.300000 -3.893524
145.320000 -4.364093
145.340000 -4.727382
145.360000 -5.023260
145.380000 -5.208720
145.400000 -5.439720
145.420000 -5.577611
145.440000 -5.706694
145.460000 -5.982826
145.480000 -6.304203
145.500000 -6.677715
145.520000 -7.083071
145.540000 -7.578454
145.560000 -8.033717
145.580000 -8.176510
145.600000 -8.276438
145.620000 -8.556365
145.640000 -8.802376
145.660000 -8.925368
145.680000 -8.953850
145.700000 -9.068258
145.720000 -9.164125
145.740000 -9.048639
145.760000 -8.896661
145.780000 -8.705067
145.800000 -8.347155
145.820000 -7.945468
145.840000 -7.615073
145.860000 -7.402123
145.880000 -7.166993
145.900000 -6.902231
145.920000 -6.519897
145.940000 -6.109333
145.960000 -5.654489
145.980000 -5.105851
146.000000 -4.472255
146.020000 -3.765015
146.040000 -3.129724
146.060000 -2.626625
146.080000 -2.158787
146.100000 -1.726601
146.120000 -1.331286
146.140000 -0.998846
146.160000 -0.620741
146.180000 -0.137513
146.200000 0.337397
146.220000 0.812195
146.240000 1.223964
146.260000 1.622668
146.280000 1.992203
146.300000 2.237598
146.320000 2.436670
146.340000 2.653974
146.360000 2.920374
146.380000 3.258051
146.400000 3.543552
146.420000 3.841810
146.440000 4.239645
146.460000 4.525552
146.480000 4.766144
146.500000 4.968464
146.520000 5.171905
146.540000 5.536287
146.560000 5.748578
146.580000 6.037397
146.600000 6.461979
146.620000 6.826753
146.640000 7.176431
146.660000 7.351571
146.680000 7.590665
146.700000 7.834085
146.720000 7.969876
146.740000 8.101900
146.760000 8.253458
146.780000 8.464839
146.800000 8.577930
146.820000 8.600027
146.840000 8.561994
146.860000 8.471742
146.880000 8.328390
146.900000 8.089731
146.920000 7.817407
146.940000 7.643625
146.960000 7.578076
146.980000 7.398160
147.000000 7.282101
147.020000 7.159557
147.040000 7.040416
147.060000 6.833055
147.080000 6.470731
147.100000 6.170121
147.120000 5.870897
147.140000 5.503659
147.160000 5.139642
147.180000 4.704921
147.200000 4.353240
147.220000 3.765939
147.240000 3.192473
147.260000 2.520830
147.280000 1.732118
147.300000 1.016840
147.320000 0.295275
147.340000 -0.335241
147.360000 -0.898176
147.380000 -1.394791
147.400000 -1.780066
147.420000 -2.170340
147.440000 -2.651537
147.460000 -3.113396
147.480000 -3.542922
147.500000 -3.997611
147.520000 -4.460352
147.540000 -4.866506
147.560000 -5.073448
147.580000 -5.277365
147.600000 -5.522858
147.620000 -5.644729
147.640000 -5.816228
147.660000 -6.063079
147.680000 -6.405042
147.700000 -6.790666
147.720000 -7.208877
147.740000 -7.723823
147.760000 -8.046642
147.780000 -8.143448
147.800000 -8.345572
147.820000 -8.645216
147.840000 -8.829402
147.860000 -8.891773
147.880000 -8.938069
147.900000 -9.080035
147.920000 -9.092610
147.940000 -8.929316
147.960000 -8.820244
147.980000 -8.626466
148.000000 -8.199671
148.020000 -7.835528
148.040000 -7.547688
148.060000 -7.388792
148.080000 -7.112226
148.100000 -6.772098
148.120000 -6.391738
148.140000 -6.017877
148.160000 -5.493297
148.180000 -4.922071
148.200000 -4.273855
148.220000 -3.579134
148.240000 -3.033115
148.260000 -2.513716
148.280000 -2.052515
148.300000 -1.631532
148.320000 -1.242113
148.340000 -0.918033
148.360000 -0.484530
148.380000 -0.007660
148.400000 0.454829
148.420000 0.910555
148.440000 1.320629
148.460000 1.761960
148.480000 2.035109
148.500000 2.246602
148.520000 2.515817
148.540000 2.703588
148.560000 2.986260
148.580000 3.299613
148.600000 3.579442
148.620000 3.957267
148.640000 4.273197
148.660000 4.511338
148.680000 4.798744
148.700000 4.994623
148.720000 5.226406
148.740000 5.523866
148.760000 5.788726
148.780000 6.121432
148.800000 6.512854
148.820000 6.862420
148.840000 7.158283
148.860000 7.416897
148.880000 7.662334
148.900000 7.823919
148.920000 8.011704
148.940000 8.196156
148.960000 8.346664
148.980000 8.526958
149.000000 8.567259
149.020000 8.641407
149.040000 8.602198
149.060000 8.412634
149.080000 8.290119
149.100000 8.046726
149.120000 7.813472
149.140000 7.651957
149.160000 7.503900
149.180000 7.411506
149.200000 7.295726
149.220000 7.129632
149.240000 6.997650
149.260000 6.733785
149.280000 6.430332
149.300000 6.090526
149.320000 5.742598
149.340000 5.448332
149.360000 5.018456
149.380000 4.606211
149.400000 4.189051
149.420000 3.580563
149.440000 3.000767
149.460000 2.238410
149.480000 1.504130
149.500000 0.815976
149.520000 0.082116
149.540000 -0.516164
149.560000 -1.026167
149.580000 -1.496680
149.600000 -1.918489
149.620000 -2.328116
149.640000 -2.753538
149.660000 -3.211000
149.680000 -3.695838
149.700000 -4.152264
149.720000 -4.547229
149.740000 -4.902312
149.760000 -5.139487
149.780000 -5.327931
149.800000 -5.483522
149.820000 -5.641522
149.840000 -5.827893
149.860000 -6.086563
149.880000 -6.413206
149.900000 -6.825423
149.920000 -7.350633
149.940000 -7.737140
149.960000 -7.993205
149.980000 -8.172000
150.000000 -8.392245
150.020000 -8.667440
150.040000 -8.797881
150.060000 -8.900820
150.080000 -8.990217
150.100000 -9.057349
150.120000 -9.021963
150.140000 -8.914109
150.160000 -8.800920
150.180000 -8.519564
150.200000 -8.106773
150.220000 -7.797032
150.240000 -7.566957
150.260000 -7.401311
150.280000 -7.117435
150.300000 -6.703327
150.320000 -6.374584
150.340000 -5.978471
150.360000 -5.396267
150.380000 -4.796321
150.400000 -4.089529
150.420000 -3.477792
150.440000 -2.937542
150.460000 -2.376847
150.480000 -1.995998
150.500000 -1.598218
150.520000 -1.212720
150.540000 -0.882954
150.560000 -0.420913
150.580000 0.065410
150.600000 0.524916
150.620000 1.000807
150.640000 1.411721
150.660000 1.827817
150.680000 2.103096
150.700000 2.291511
150.720000 2.544916
150.740000 2.804160
150.760000 3.061780
150.780000 3.366731
150.800000 3.714855
150.820000 4.071003
150.840000 4.386134
150.860000 4.632846
150.880000 4.886153
150.900000 5.105991
150.920000 5.343643
150.940000 5.583352
150.960000 5.916534
150.980000 6.254800
151.000000 6.622934
151.020000 7.006080
151.040000 7.271402
151.060000 7.521208
151.080000 7.743049
151.100000 7.916999
151.120000 8.088162
151.140000 8.245994
151.160000 8.411836
151.180000 8.556155
151.200000 8.625037
151.220000 8.658715
151.240000 8.553060
151.260000 8.401530
151.280000 8.213240
151.300000 7.931689
151.320000 7.744338
151.340000 7.546050
151.360000 7.416197
151.380000 7.364160
151.400000 7.174961
151.420000 7.072820
151.440000 6.898002
151.460000 6.614406
151.480000 6.320265
151.500000 5.970461
151.520000 5.629521
151.540000 5.306142
151.560000 4.878479
151.580000 4.501368
151.600000 4.047645
151.620000 3.447265
151.640000 2.840345
151.660000 2.133399
151.680000 1.362472
151.700000 0.634381
151.720000 -0.040484
151.740000 -0.613347
151.760000 -1.143991
151.780000 -1.590712
151.800000 -2.006556
151.820000 -2.374005
151.840000 -2.815783
151.860000 -3.348205
151.880000 -3.747581
151.900000 -4.204231
151.920000 -4.634512
151.940000 -4.919173
151.960000 -5.145103
151.980000 -5.334330
152.000000 -5.492498
152.020000 -5.650526
152.040000 -5.858490
152.060000 -6.136373
152.080000 -6.542863
152.100000 -6.966885
152.120000 -7.440983
152.140000 -7.881529
152.160000 -8.098063
152.180000 -8.230016
152.200000 -8.479556
152.220000 -8.766513
152.240000 -8.902766
152.260000 -8.941934
152.280000 -9.037072
152.300000 -9.100424
152.320000 -9.061704
152.340000 -8.937999
152.360000 -8.745284
152.380000 -8.427828
152.400000 -8.020484
152.420000 -7.713978
152.440000 -7.524009
152.460000 -7.306802
152.480000 -7.000451
152.500000 -6.632862
152.520000 -6.259813
152.540000 -5.817404
152.560000 -5.235004
152.580000 -4.570839
152.600000 -3.939441
152.620000 -3.289783
152.640000 -2.723627
152.660000 -2.284649
152.680000 -1.871312
152.700000 -1.462694
152.720000 -1.109137
152.740000 -0.746618
152.760000 -0.298692
152.780000 0.206984
152.800000 0.696738
152.820000 1.080164
152.840000 1.495265
152.860000 1.914820
152.880000 2.127924
152.900000 2.309631
152.920000 2.570304
152.940000 2.851113
152.960000 3.142944
152.980000 3.419986
153.000000 3.793512
153.020000 4.173353
153.040000 4.434670
153.060000 4.683216
153.080000 4.928891
153.100000 5.150550
153.120000 5.388691
153.140000 5.688419
153.160000 5.995835
153.180000 6.351899
153.200000 6.742579
153.220000 7.087104
153.240000 7.354078
153.260000 7.558695
153.280000 7.779626
153.300000 7.980714
153.320000 8.142831
153.340000 8.281577
153.360000 8.454378
153.380000 8.659416
153.400000 8.683207
153.420000 8.622993
153.440000 8.550203
153.460000 8.396236
153.480000 8.177112
153.500000 7.916047
153.520000 7.677640
153.540000 7.585708
153.560000 7.459971
153.580000 7.312740
153.600000 7.230428
153.620000 7.045304
153.640000 6.863078
153.660000 6.605682
153.680000 6.193479
153.700000 5.903833
153.720000 5.559056
153.740000 5.226462
153.760000 4.863789
153.780000 4.397547
153.800000 3.905315
153.820000 3.424649
153.840000 2.673915
153.860000 1.882515
153.880000 1.169099
153.900000 0.465192
153.920000 -0.214686
153.940000 -0.842387
153.960000 -1.339408
153.980000 -1.707150
154.000000 -2.093265
154.020000 -2.575569
154.040000 -3.030426
154.060000 -3.438919
154.080000 -3.912008
154.100000 -4.383502
154.120000 -4.754339
154.140000 -5.007016
154.160000 -5.186315
154.180000 -5.396533
154.200000 -5.529355
154.220000 -5.695155
154.240000 -5.931616
154.260000 -6.236385
154.280000 -6.626001
154.300000 -7.070356
154.320000 -7.592177
154.340000 -7.934559
154.360000 -8.057481
154.380000 -8.289237
154.400000 -8.547823
154.420000 -8.733129
154.440000 -8.895918
154.460000 -8.966467
154.480000 -9.068104
154.500000 -9.097819
154.520000 -8.955587
154.540000 -8.923519
154.560000 -8.704268
154.580000 -8.216783
154.600000 -7.919366
154.620000 -7.652630
154.640000 -7.437762
154.660000 -7.207098
154.680000 -6.898352
154.700000 -6.537542
154.720000 -6.159381
154.740000 -5.652865
154.760000 -5.080323
154.780000 -4.446741
154.800000 -3.750830
154.820000 -3.156485
154.840000 -2.627928
154.860000 -2.165887
154.880000 -1.757576
154.900000 -1.397480
154.920000 -1.019851
154.940000 -0.582232
154.960000 -0.157412
154.980000 0.305469
155.000000 0.824910
155.020000 1.255836
155.040000 1.632190
155.060000 1.931610
155.080000 2.216089
155.100000 2.466147
155.120000 2.631205
155.140000 2.884917
155.160000 3.248137
155.180000 3.593250
155.200000 3.872169
155.220000 4.231103
155.240000 4.516450
155.260000 4.780427
155.280000 4.984302
155.300000 5.155157
155.320000 5.491616
155.340000 5.760117
155.360000 6.066258
155.380000 6.471894
155.400000 6.802009
155.420000 7.147640
155.440000 7.411996
155.460000 7.586828
155.480000 7.775495
155.500000 7.971584
155.520000 8.154916
155.540000 8.326766
155.560000 8.471350
155.580000 8.605293
155.600000 8.684692
155.620000 8.624435
155.640000 8.459209
155.660000 8.304598
155.680000 8.108495
155.700000 7.810434
155.720000 7.627858
155.740000 7.530114
155.760000 7.405652
155.780000 7.300837
155.800000 7.174401
155.820000 7.018487
155.840000 6.824120
155.860000 6.474764
155.880000 6.144509
155.900000 5.876919
155.920000 5.474728
155.940000 5.148926
155.960000 4.779783
155.980000 4.371375
156.000000 3.821323
156.020000 3.226530
156.040000 2.592485
156.060000 1.783833
156.080000 1.019081
156.100000 0.308676
156.120000 -0.308718
156.140000 -0.846125
156.160000 -1.414662
156.180000 -1.800931
156.200000 -2.127041
156.220000 -2.632521
156.240000 -3.148083
156.260000 -3.546969
156.280000 -4.015787
156.300000 -4.461458
156.320000 -4.881419
156.340000 -5.105305
156.360000 -5.220973
156.380000 -5.493857
156.400000 -5.617590
156.420000 -5.757316
156.440000 -6.004994
156.460000 -6.357920
156.480000 -6.778792
156.500000 -7.178560
156.520000 -7.681687
156.540000 -8.083345
156.560000 -8.135774
156.580000 -8.297961
156.600000 -8.625682
156.620000 -8.843224
156.640000 -8.902360
156.660000 -8.942452
156.680000 -9.107579
156.700000 -9.150962
156.720000 -8.947283
156.740000 -8.825327
156.760000 -8.631675
156.780000 -8.211252
156.800000 -7.807955
156.820000 -7.499251
156.840000 -7.384045
156.860000 -7.124409
156.880000 -6.752003
156.900000 -6.421230
156.920000 -6.043545
156.940000 -5.528851
156.960000 -4.955035
156.980000 -4.298795
157.000000 -3.594482
157.020000 -3.014715
157.040000 -2.500917
157.060000 -2.027687
157.080000 -1.623270
157.100000 -1.212664
157.120000 -0.909253
157.140000 -0.483550
157.160000 0.040974
157.180000 0.484278
157.200000 0.922738
157.220000 1.349476
157.240000 1.798718
157.260000 2.079150
157.280000 2.261992
157.300000 2.505076
157.320000 2.739353
157.340000 2.981415
157.360000 3.277782
157.380000 3.588125
157.400000 3.947409
157.420000 4.261126
157.440000 4.515301
157.460000 4.794991
157.480000 4.978295
157.500000 5.224922
157.520000 5.516514
157.540000 5.776389
157.560000 6.135911
157.580000 6.499564
157.600000 6.856048
157.620000 7.210067
157.640000 7.404000
157.660000 7.646944
157.680000 7.865901
157.700000 7.991063
157.720000 8.182237
157.740000 8.346706
157.760000 8.526510
157.780000 8.599201
157.800000 8.606833
157.820000 8.608135
157.840000 8.435110
157.860000 8.249915
157.880000 8.025301
157.900000 7.782133
157.920000 7.662334
157.940000 7.463934
157.960000 7.348448
157.980000 7.332779
158.000000 7.128063
158.020000 6.951747
158.040000 6.744539
158.060000 6.414676
158.080000 6.138474
158.100000 5.763099
158.120000 5.419107
158.140000 5.104353
158.160000 4.668148
158.180000 4.247333
158.200000 3.695194
158.220000 3.051698
158.240000 2.383639
158.260000 1.610205
158.280000 0.874706
158.300000 0.160899
158.320000 -0.478019
158.340000 -0.961499
158.360000 -1.454208
158.380000 -1.906082
158.400000 -2.301215
158.420000 -2.687078
158.440000 -3.184870
158.460000 -3.695642
158.480000 -4.112088
158.500000 -4.541852
158.520000 -4.887175
158.540000 -5.131015
158.560000 -5.343909
158.580000 -5.476871
158.600000 -5.652417
158.620000 -5.890964
158.640000 -6.115046
158.660000 -6.480562
158.680000 -6.888144
158.700000 -7.321520
158.720000 -7.824661
158.740000 -8.103888
158.760000 -8.227762
158.780000 -8.444646
158.800000 -8.721226
158.820000 -8.969072
158.840000 -9.023349
158.860000 -9.017902
158.880000 -9.114595
158.900000 -9.148217
158.920000 -8.964269
158.940000 -8.771008
158.960000 -8.551058
158.980000 -8.156891
159.000000 -7.749477
159.020000 -7.502962
159.040000 -7.332289
159.060000 -7.064502
159.080000 -6.687840
159.100000 -6.262880
159.120000 -5.918467
159.140000 -5.354761
159.160000 -4.696015
159.180000 -4.104639
159.200000 -3.461786
159.220000 -2.834743
159.240000 -2.343449
159.260000 -1.934593
159.280000 -1.501021
159.300000 -1.090064
159.320000 -0.740638
159.340000 -0.320719
159.360000 0.145915
159.380000 0.655806
159.400000 1.050687
159.420000 1.431466
159.440000 1.859563
159.460000 2.122168
159.480000 2.303358
159.500000 2.551133
159.520000 2.783673
159.540000 3.044780
159.560000 3.357825
159.580000 3.646014
159.600000 4.020520
159.620000 4.305279
159.640000 4.558684
159.660000 4.856998
159.680000 5.028441
159.700000 5.277001
159.720000 5.594387
159.740000 5.892126
159.760000 6.209835
159.780000 6.553071
159.800000 6.978718
159.820000 7.261390
159.840000 7.447578
159.860000 7.696124
159.880000 7.915837
159.900000 8.122583
159.920000 8.245560
159.940000 8.381169
159.960000 8.593082
159.980000 8.643928
160.000000 8.597493
160.020000 8.521987
160.040000 8.369476
160.060000 8.222048
160.080000 7.954402
160.100000 7.708615
160.120000 7.611628
160.140000 7.456470
160.160000 7.338716
160.180000 7.247820
160.200000 7.049519
160.220000 6.886715
160.240000 6.657942
160.260000 6.336131
160.280000 6.013648
160.300000 5.651002
160.320000 5.354747
160.340000 4.969599
160.360000 4.547943
160.380000 4.020310
160.400000 3.483631
160.420000 2.902128
160.440000 2.101037
160.460000 1.354140
160.480000 0.660777
160.500000 0.005167
160.520000 -0.596823
160.540000 -1.154031
160.560000 -1.568769
160.580000 -1.980412
160.600000 -2.396130
160.620000 -2.859347
160.640000 -3.329650
160.660000 -3.755353
160.680000 -4.194134
160.700000 -4.599938
160.720000 -4.914831
160.740000 -5.137905
160.760000 -5.343012
160.780000 -5.479335
160.800000 -5.696359
160.820000 -5.926589
160.840000 -6.187065
160.860000 -6.528845
160.880000 -6.948890
160.900000 -7.445198
160.920000 -7.856253
160.940000 -8.057817
160.960000 -8.258667
160.980000 -8.518864
161.000000 -8.761962
161.020000 -8.934764
161.040000 -9.000720
161.060000 -9.057713
161.080000 -9.125532
161.100000 -9.044438
161.120000 -8.928406
161.140000 -8.766905
161.160000 -8.433219
161.180000 -8.088932
161.200000 -7.771924
161.220000 -7.504376
161.240000 -7.322234
161.260000 -7.017899
161.280000 -6.629236
161.300000 -6.236259
161.320000 -5.757624
161.340000 -5.245171
161.360000 -4.596605
161.380000 -3.919794
161.400000 -3.367488
161.420000 -2.767569
161.440000 -2.266823
161.460000 -1.846876
161.480000 -1.425837
161.500000 -1.045043
161.520000 -0.624102
161.540000 -0.183850
161.560000 0.243393
161.580000 0.751127
161.600000 1.179181
161.620000 1.535091
161.640000 1.924931
161.660000 2.159767
161.680000 2.414810
161.700000 2.615591
161.720000 2.838790
161.740000 3.156079
161.760000 3.398155
161.780000 3.737694
161.800000 4.082191
161.820000 4.321047
161.840000 4.613017
161.860000 4.846677
161.880000 5.098304
161.900000 5.340240
161.920000 5.620559
161.940000 5.963712
161.960000 6.318809
161.980000 6.674088
162.000000 7.016205
162.020000 7.329740
162.040000 7.580344
162.060000 7.782007
162.080000 7.997995
162.100000 8.214123
162.120000 8.325729
162.140000 8.509145
162.160000 8.621284
162.180000 8.636268
162.200000 8.643438
162.220000 8.490745
162.240000 8.361368
162.260000 8.186746
162.280000 7.903010
162.300000 7.754140
162.320000 7.594446
162.340000 7.444568
162.360000 7.349765
162.380000 7.211832
162.400000 7.052277
162.420000 6.828616
162.440000 6.557286
162.460000 6.276435
162.480000 5.936083
162.500000 5.558832
162.520000 5.226574
162.540000 4.827745
162.560000 4.384846
162.580000 3.818088
162.600000 3.235338
162.620000 2.626541
162.640000 1.833447
162.660000 1.084505
162.680000 0.406868
162.700000 -0.222695
162.720000 -0.761433
162.740000 -1.287778
162.760000 -1.739414
162.780000 -2.088462
162.800000 -2.479926
162.820000 -2.976514
162.840000 -3.423445
162.860000 -3.837819
162.880000 -4.236368
162.900000 -4.609194
162.920000 -4.927757
162.940000 -5.118804
162.960000 -5.296171
162.980000 -5.467096
163.000000 -5.686893
163.020000 -5.936531
163.040000 -6.214498
163.060000 -6.560521
163.080000 -7.042475
163.100000 -7.532355
163.120000 -7.914268
163.140000 -8.087658
163.160000 -8.271032
163.180000 -8.607113
163.200000 -8.843504
163.220000 -8.921251
163.240000 -8.984042
163.260000 -9.108336
163.280000 -9.126974
163.300000 -9.006279
163.320000 -8.887544
163.340000 -8.715233
163.360000 -8.378172
163.380000 -8.019252
163.400000 -7.702986
163.420000 -7.519514
163.440000 -7.281638
163.460000 -6.976099
163.480000 -6.562594
163.500000 -6.146820
163.520000 -5.692242
163.540000 -5.140454
163.560000 -4.488303
163.580000 -3.797153
163.600000 -3.226474
163.620000 -2.699247
163.640000 -2.191877
163.660000 -1.729108
163.680000 -1.355148
163.700000 -0.976553
163.720000 -0.544017
163.740000 -0.095349
163.760000 0.377699
163.780000 0.822040
163.800000 1.262067
163.820000 1.667143
163.840000 1.962040
163.860000 2.252932
163.880000 2.453740
163.900000 2.656271
163.920000 2.947653
163.940000 3.212106
163.960000 3.492468
163.980000 3.838575
164.000000 4.160778
164.020000 4.460156
164.040000 4.670431
164.060000 4.932686
164.080000 5.205583
164.100000 5.452939
164.120000 5.721103
164.140000 6.065404
164.160000 6.441338
164.180000 6.790694
164.200000 7.097228
164.220000 7.387826
164.240000 7.647406
164.260000 7.817673
164.280000 8.026912
164.300000 8.219192
164.320000 8.371758
164.340000 8.515657
164.360000 8.615949
164.380000 8.641113
164.400000 8.588615
164.420000 8.473675
164.440000 8.315101
164.460000 8.102082
164.480000 7.833287
164.500000 7.673201
164.520000 7.601139
164.540000 7.398328
164.560000 7.290152
164.580000 7.205866
164.600000 7.030908
164.620000 6.808815
164.640000 6.469569
164.660000 6.191336
164.680000 5.936965
164.700000 5.492428
164.720000 5.132682
164.740000 4.780959
164.760000 4.316132
164.780000 3.744570
164.800000 3.130803
164.820000 2.459761
164.840000 1.733281
164.860000 0.969411
164.880000 0.255617
164.900000 -0.369017
164.920000 -0.923130
164.940000 -1.383841
164.960000 -1.828574
164.980000 -2.233817
165.000000 -2.643317
165.020000 -3.090879
165.040000 -3.516441
165.060000 -4.003506
165.080000 -4.380799
165.100000 -4.725800
165.120000 -4.996989
165.140000 -5.181610
165.160000 -5.411615
165.180000 -5.502553
165.200000 -5.726537
165.220000 -6.023548
165.240000 -6.297888
165.260000 -6.708187
165.280000 -7.187578
165.300000 -7.671744
165.320000 -8.003694
165.340000 -8.153978
165.360000 -8.372347
165.380000 -8.690321
165.400000 -8.852214
165.420000 -8.934498
165.440000 -9.001392
165.460000 -9.075890
165.480000 -9.095817
165.500000 -8.946779
165.520000 -8.848489
165.540000 -8.608933
165.560000 -8.232831
165.580000 -7.919324
165.600000 -7.570374
165.620000 -7.433855
165.640000 -7.177439
165.660000 -6.847772
165.680000 -6.453675
165.700000 -6.001703
165.720000 -5.562935
165.740000 -5.003823
165.760000 -4.281991
165.780000 -3.629378
165.800000 -3.047301
165.820000 -2.548431
165.840000 -2.037644
165.860000 -1.592547
165.880000 -1.246146
165.900000 -0.904911
165.920000 -0.436513
165.940000 0.012603
165.960000 0.481576
165.980000 0.909323
166.000000 1.329550
166.020000 1.780556
166.040000 2.021470
166.060000 2.268825
166.080000 2.488370
166.100000 2.675637
166.120000 2.977018
166.140000 3.247171
166.160000 3.526580
166.180000 3.898481
166.200000 4.221175
166.220000 4.488331
166.240000 4.727326
166.260000 4.964207
166.280000 5.212319
166.300000 5.491084
166.320000 5.750216
166.340000 6.097556
166.360000 6.488292
166.380000 6.842549
166.400000 7.158087
166.420000 7.444260
166.440000 7.678872
166.460000 7.890113
166.480000 8.081581
166.500000 8.273245
166.520000 8.447237
166.540000 8.558199
166.560000 8.694956
166.580000 8.729488
166.600000 8.664807
166.620000 8.506037
166.640000 8.358455
166.660000 8.134499
166.680000 7.868800
166.700000 7.703910
166.720000 7.557799
166.740000 7.432861
166.760000 7.311256
166.780000 7.162708
166.800000 7.004554
166.820000 6.773904
166.840000 6.437361
166.860000 6.133376
166.880000 5.807658
166.900000 5.425646
166.920000 5.034112
166.940000 4.637201
166.960000 4.178268
166.980000 3.600251
167.000000 3.000151
167.020000 2.294564
167.040000 1.521928
167.060000 0.813469
167.080000 0.078335
167.100000 -0.540460
167.120000 -1.061245
167.140000 -1.554220
167.160000 -1.951523
167.180000 -2.350311
167.200000 -2.787972
167.220000 -3.194252
167.240000 -3.655607
167.260000 -4.104583
167.280000 -4.478052
167.300000 -4.838513
167.320000 -5.010180
167.340000 -5.270489
167.360000 -5.462545
167.380000 -5.537757
167.400000 -5.795237
167.420000 -6.047662
167.440000 -6.395197
167.460000 -6.819415
167.480000 -7.250453
167.500000 -7.782091
167.520000 -8.076049
167.540000 -8.183595
167.560000 -8.466603
167.580000 -8.715919
167.600000 -8.913787
167.620000 -9.030029
167.640000 -9.013659
167.660000 -9.155373
167.680000 -9.113867
167.700000 -8.948263
167.720000 -8.899573
167.740000 -8.551814
167.760000 -8.196156
167.780000 -7.855972
167.800000 -7.525157
167.820000 -7.380096
167.840000 -7.114144
167.860000 -6.766160
167.880000 -6.371490
167.900000 -5.951921
167.920000 -5.449354
167.940000 -4.856031
167.960000 -4.147629
167.980000 -3.514201
168.000000 -2.913162
168.020000 -2.384339
168.040000 -1.920240
168.060000 -1.519575
168.080000 -1.139048
168.100000 -0.721313
168.120000 -0.319263
168.140000 0.107350
168.160000 0.598518
168.180000 1.047396
168.200000 1.435331
168.220000 1.797262
168.240000 2.101289
168.260000 2.340201
168.280000 2.541919
168.300000 2.738946
168.320000 3.041237
168.340000 3.342646
168.360000 3.637696
168.380000 3.987907
168.400000 4.285940
168.420000 4.553797
168.440000 4.814987
168.460000 5.023021
168.480000 5.259748
168.500000 5.559630
168.520000 5.856376
168.540000 6.214666
168.560000 6.546490
168.580000 6.923166
168.600000 7.288766
168.620000 7.502654
168.640000 7.684333
168.660000 7.908653
168.680000 8.179044
168.700000 8.288172
168.720000 8.364407
168.740000 8.575774
168.760000 8.686820
168.780000 8.690909
168.800000 8.545022
168.820000 8.422213
168.840000 8.322677
168.860000 8.041475
168.880000 7.784457
168.900000 7.651915
168.920000 7.535870
168.940000 7.403580
168.960000 7.304478
168.980000 7.122546
169.000000 6.972108
169.020000 6.697978
169.040000 6.397564
169.060000 6.093523
169.080000 5.653607
169.100000 5.383804
169.120000 5.017448
169.140000 4.570391
169.160000 4.051216
169.180000 3.462710
169.200000 2.944446
169.220000 2.159011
169.240000 1.304806
169.260000 0.662051
169.280000 -0.027937
169.300000 -0.635011
169.320000 -1.198170
169.340000 -1.673542
169.360000 -2.009189
169.380000 -2.423325
169.400000 -2.901371
169.420000 -3.314821
169.440000 -3.762004
169.460000 -4.191670
169.480000 -4.568836
169.500000 -4.913767
169.520000 -5.128271
169.540000 -5.331208
169.560000 -5.485623
169.580000 -5.652151
169.600000 -5.937609
169.620000 -6.173356
169.640000 -6.484329
169.660000 -6.949339
169.680000 -7.442117
169.700000 -7.897885
169.720000 -8.117597
169.740000 -8.288102
169.760000 -8.548607
169.780000 -8.813159
169.800000 -8.921727
169.820000 -9.035476
169.840000 -9.152376
169.860000 -9.141986
169.880000 -9.077682
169.900000 -8.927902
169.920000 -8.802138
169.940000 -8.468494
169.960000 -8.007685
169.980000 -7.739759
170.000000 -7.455406
170.020000 -7.208961
170.040000 -6.991839
170.060000 -6.608791
170.080000 -6.208196
170.100000 -5.797604
170.120000 -5.252201
170.140000 -4.688117
170.160000 -3.972307
170.180000 -3.300313
170.200000 -2.820306
170.220000 -2.249935
170.240000 -1.786157
170.260000 -1.417281
170.280000 -1.049692
170.300000 -0.668087
170.320000 -0.194395
170.340000 0.191776
170.360000 0.671293
170.380000 1.148822
170.400000 1.505376
170.420000 1.867839
170.440000 2.118429
170.460000 2.386258
170.480000 2.606503
170.500000 2.760456
170.520000 3.140423
170.540000 3.410716
170.560000 3.668420
170.580000 4.094416
170.600000 4.347121
170.620000 4.601534
170.640000 4.882064
170.660000 5.055831
170.680000 5.402471
170.700000 5.649168
170.720000 5.903693
170.740000 6.352011
170.760000 6.682112
170.780000 7.022604
170.800000 7.297644
170.820000 7.575471
170.840000 7.773647
170.860000 7.935428
170.880000 8.152620
170.900000 8.283019
170.920000 8.434438
170.940000 8.596120
170.960000 8.617952
170.980000 8.653338
171.000000 8.515685
171.020000 8.355879
171.040000 8.236346
171.060000 7.915921
171.080000 7.707285
171.100000 7.661620
171.120000 7.456582
171.140000 7.350689
171.160000 7.248618
171.180000 7.080172
171.200000 6.941553
171.220000 6.606844
171.240000 6.254113
171.260000 6.023800
171.280000 5.625068
171.300000 5.257830
171.320000 4.885172
171.340000 4.464063
171.360000 3.939875
171.380000 3.347015
171.400000 2.720616
171.420000 1.929020
171.440000 1.177445
171.460000 0.459198
171.480000 -0.215806
171.500000 -0.779693
171.520000 -1.309679
171.540000 -1.735493
171.560000 -2.095128
171.580000 -2.524275
171.600000 -2.966459
171.620000 -3.371170
171.640000 -3.847775
171.660000 -4.260062
171.680000 -4.657450
171.700000 -4.959348
171.720000 -5.143352
171.740000 -5.379379
171.760000 -5.540278
171.780000 -5.695575
171.800000 -5.956598
171.820000 -6.276225
171.840000 -6.604842
171.860000 -7.071196
171.880000 -7.587318
171.900000 -7.978698
171.920000 -8.199769
171.940000 -8.354072
171.960000 -8.618470
171.980000 -8.864425
172.000000 -8.990819
172.020000 -9.023139
172.040000 -9.104709
172.060000 -9.165091
172.080000 -9.038459
172.100000 -8.933461
172.120000 -8.708469
172.140000 -8.371814
172.160000 -8.006761
172.180000 -7.635742
172.200000 -7.400765
172.220000 -7.167441
172.240000 -6.904458
172.260000 -6.527235
172.280000 -6.109389
172.300000 -5.650008
172.320000 -5.140426
172.340000 -4.503104
172.360000 -3.802362
172.380000 -3.200847
172.400000 -2.631373
172.420000 -2.133917
172.440000 -1.704434
172.460000 -1.293589
172.480000 -0.925511
172.500000 -0.540236
172.520000 -0.135244
172.540000 0.347199
172.560000 0.806790
172.580000 1.208659
172.600000 1.600711
172.620000 1.936329
172.640000 2.232459
172.660000 2.433687
172.680000 2.616697
172.700000 2.883783
172.720000 3.192151
172.740000 3.447797
172.760000 3.775350
172.780000 4.118474
172.800000 4.417390
172.820000 4.681143
172.840000 4.908586
172.860000 5.159610
172.880000 5.433670
172.900000 5.701723
172.920000 6.052535
172.940000 6.379598
172.960000 6.753053
172.980000 7.106148
173.000000 7.368795
173.020000 7.610956
173.040000 7.803712
173.060000 8.025623
173.080000 8.210748
173.100000 8.332815
173.120000 8.460610
173.140000 8.608037
173.160000 8.658141
173.180000 8.581151
173.200000 8.473451
173.220000 8.384642
173.240000 8.126798
173.260000 7.903010
173.280000 7.719356
173.300000 7.586548
173.320000 7.465363
173.340000 7.332905
173.360000 7.212714
173.380000 7.070636
173.400000 6.820396
173.420000 6.543983
173.440000 6.249044
173.460000 5.886259
173.480000 5.533318
173.500000 5.175700
173.520000 4.752630
173.540000 4.297255
173.560000 3.707727
173.580000 3.139429
173.600000 2.448405
173.620000 1.640326
173.640000 0.926799
173.660000 0.243673
173.680000 -0.364774
173.700000 -0.964202
173.720000 -1.435471
173.740000 -1.819611
173.760000 -2.210613
173.780000 -2.616711
173.800000 -3.080376
173.820000 -3.503768
173.840000 -3.906799
173.860000 -4.318232
173.880000 -4.736247
173.900000 -4.957178
173.920000 -5.150018
173.940000 -5.373106
173.960000 -5.538961
173.980000 -5.768547
174.000000 -5.974424
174.020000 -6.270637
174.040000 -6.703425
174.060000 -7.151113
174.080000 -7.607259
174.100000 -8.001117
174.120000 -8.181019
174.140000 -8.352252
174.160000 -8.679216
174.180000 -8.863263
174.200000 -8.994572
174.220000 -9.033922
174.240000 -9.085650
174.260000 -9.156563
174.280000 -8.955433
174.300000 -8.844050
174.320000 -8.667986
174.340000 -8.271130
174.360000 -7.904368
174.380000 -7.596490
174.400000 -7.421042
174.420000 -7.180982
174.440000 -6.795778
174.460000 -6.450875
174.480000 -6.089854
174.500000 -5.536315
174.520000 -4.985296
174.540000 -4.353829
174.560000 -3.730315
174.580000 -3.118256
174.600000 -2.525101
174.620000 -2.103978
174.640000 -1.665392
174.660000 -1.255934
174.680000 -0.890530
174.700000 -0.469827
174.720000 -0.063995
174.740000 0.410733
174.760000 0.883360
174.780000 1.272570
174.800000 1.665700
174.820000 1.995984
174.840000 2.220458
174.860000 2.494084
174.880000 2.702440
174.900000 2.939965
174.920000 3.271326
174.940000 3.553046
174.960000 3.903634
174.980000 4.207073
175.000000 4.486090
175.020000 4.779909
175.040000 5.027881
175.060000 5.256626
175.080000 5.523572
175.100000 5.842863
175.120000 6.176339
175.140000 6.516663
175.160000 6.854690
175.180000 7.199117
175.200000 7.490303
175.220000 7.663720
175.240000 7.880968
175.260000 8.104448
175.280000 8.283061
175.300000 8.408811
175.320000 8.544140
175.340000 8.646014
175.360000 8.676612
175.380000 8.624715
175.400000 8.453636
175.420000 8.309457
175.440000 8.094856
175.460000 7.844084
175.480000 7.686728
175.500000 7.530478
175.520000 7.373094
175.540000 7.294409
175.560000 7.162736
175.580000 6.934523
175.600000 6.711295
175.620000 6.451253
175.640000 6.144691
175.660000 5.798584
175.680000 5.385849
175.700000 5.068308
175.720000 4.666580
175.740000 4.121849
175.760000 3.548005
175.780000 2.953366
175.800000 2.280448
175.820000 1.515822
175.840000 0.742767
175.860000 0.099298
175.880000 -0.496671
175.900000 -1.044413
175.920000 -1.514352
175.940000 -1.934271
175.960000 -2.266655
175.980000 -2.696502
176.000000 -3.145940
176.020000 -3.569962
176.040000 -4.034356
176.060000 -4.386821
176.080000 -4.738249
176.100000 -5.006077
176.120000 -5.217388
176.140000 -5.410733
176.160000 -5.543989
176.180000 -5.799956
176.200000 -6.095427
176.220000 -6.386977
176.240000 -6.805804
176.260000 -7.294241
176.280000 -7.751493
176.300000 -8.082645
176.320000 -8.226964
176.340000 -8.473591
176.360000 -8.794982
176.380000 -8.930871
176.400000 -9.035294
176.420000 -9.076744
176.440000 -9.143988
176.460000 -9.126358
176.480000 -8.971663
176.500000 -8.835046
176.520000 -8.569108
176.540000 -8.198033
176.560000 -7.839463
176.580000 -7.559325
176.600000 -7.361066
176.620000 -7.114774
176.640000 -6.745085
176.660000 -6.306178
176.680000 -5.928017
176.700000 -5.413281
176.720000 -4.822717
176.740000 -4.150514
176.760000 -3.499721
176.780000 -2.955592
176.800000 -2.409573
176.820000 -1.965218
176.840000 -1.548604
176.860000 -1.167559
176.880000 -0.823958
176.900000 -0.393018
176.920000 0.067286
176.940000 0.505115
176.960000 0.941124
176.980000 1.374402
177.000000 1.713242
177.020000 2.057977
177.040000 2.259303
177.060000 2.461274
177.080000 2.764391
177.100000 3.000725
177.120000 3.300327
177.140000 3.610656
177.160000 3.966397
177.180000 4.319226
177.200000 4.530971
177.220000 4.834984
177.240000 5.077299
177.260000 5.347437
177.280000 5.626174
177.300000 5.900192
177.320000 6.263384
177.340000 6.630300
177.360000 6.970736
177.380000 7.249641
177.400000 7.505776
177.420000 7.731202
177.440000 7.934755
177.460000 8.101858
177.480000 8.281367
177.500000 8.454028
177.520000 8.594720
177.540000 8.682339
177.560000 8.660774
177.580000 8.596975
177.600000 8.474151
177.620000 8.270556
177.640000 8.039235
177.660000 7.826341
177.680000 7.677542
177.700000 7.544958
177.720000 7.379522
177.740000 7.302727
177.760000 7.150315
177.780000 6.940993
177.800000 6.710441
177.820000 6.376153
177.840000 6.070431
177.860000 5.731284
177.880000 5.336053
177.900000 4.971503
177.920000 4.551808
177.940000 4.029147
177.960000 3.410002
177.980000 2.811946
178.000000 2.061001
178.020000 1.291264
178.040000 0.571631
178.060000 -0.121787
178.080000 -0.684681
178.100000 -1.223208
178.120000 -1.673822
178.140000 -2.047726
178.160000 -2.420762
178.180000 -2.864193
178.200000 -3.306867
178.220000 -3.722991
178.240000 -4.149814
178.260000 -4.527736
178.280000 -4.846887
178.300000 -5.039251
178.320000 -5.252005
178.340000 -5.418070
178.360000 -5.565372
178.380000 -5.822488
178.400000 -6.088440
178.420000 -6.467007
178.440000 -6.885399
178.460000 -7.379032
178.480000 -7.892479
178.500000 -8.085586
178.520000 -8.237760
178.540000 -8.509762
178.560000 -8.814419
178.580000 -8.960796
178.600000 -8.961790
178.620000 -9.060710
178.640000 -9.180901
178.660000 -9.081813
178.680000 -8.905077
178.700000 -8.806311
178.720000 -8.501164
178.740000 -8.056753
178.760000 -7.707537
178.780000 -7.486382
178.800000 -7.299087
178.820000 -6.973522
178.840000 -6.613328
178.860000 -6.240894
178.880000 -5.810977
178.900000 -5.246753
178.920000 -4.662589
178.940000 -3.995258
178.960000 -3.295398
178.980000 -2.800253
179.000000 -2.277115
179.020000 -1.846064
179.040000 -1.475731
179.060000 -1.081144
179.080000 -0.761545
179.100000 -0.301310
179.120000 0.157216
179.140000 0.571155
179.160000 1.057884
179.180000 1.446422
179.200000 1.786339
179.220000 2.034451
179.240000 2.300207
179.260000 2.521698
179.280000 2.697426
179.300000 3.029222
179.320000 3.356957
179.340000 3.693122
179.360000 4.031723
179.380000 4.339811
179.400000 4.633182
179.420000 4.913361
179.440000 5.076500
179.460000 5.346513
179.480000 5.664810
179.500000 5.941446
179.520000 6.327029
179.540000 6.652537
179.560000 7.008965
179.580000 7.355282
179.600000 7.555054
179.620000 7.752978
179.640000 7.939250
179.660000 8.146332
179.680000 8.324175
179.700000 8.444604
179.720000 8.588180
179.740000 8.704268
179.760000 8.742876
179.780000 8.607309
179.800000 8.456283
179.820000 8.303296
179.840000 8.072941
179.860000 7.827266
179.880000 7.666241
179.900000 7.514654
179.920000 7.437356
179.940000 7.341195
179.960000 7.124871
179.980000 6.923936