90 Deg Fixed Reg 8 13-Apr-2018
Time(s) LoadCell(N)
0.000000 -0.209028
0.020000 -0.217766
0.040000 -0.190222
0.060000 -0.223228
0.080000 -0.238043
0.100000 -0.224600
0.120000 -0.250408
0.140000 -0.218439
0.160000 -0.278345
0.180000 -0.256052
0.200000 -0.224950
0.220000 -0.282084
0.240000 -0.262437
0.260000 -0.270405
0.280000 -0.276440
0.300000 -0.256542
0.320000 -0.285108
0.340000 -0.250492
0.360000 -0.254259
0.380000 -0.278611
0.400000 -0.259538
0.420000 -0.252607
0.440000 -0.273122
0.460000 -0.241236
0.480000 -0.253643
0.500000 -0.244541
0.520000 -0.255477
0.540000 -0.279143
0.560000 -0.229907
0.580000 -0.255281
0.600000 -0.264748
0.620000 -0.256276
0.640000 -0.233044
0.660000 -0.246725
0.680000 -0.265126
0.700000 -0.247636
0.720000 -0.256962
0.740000 -0.241530
0.760000 -0.259889
0.780000 -0.257340
0.800000 -0.227261
0.820000 -0.277631
0.840000 -0.257102
0.860000 -0.211633
0.880000 -0.257354
0.900000 -0.230719
0.920000 -0.228255
0.940000 -0.230565
0.960000 -0.195165
0.980000 -0.236531
1.000000 -0.214938
1.020000 -0.166192
1.040000 -0.231448
1.060000 -0.186777
1.080000 -0.183430
1.100000 -0.207698
1.120000 -0.188541
1.140000 -0.199562
1.160000 -0.202391
1.180000 -0.207166
1.200000 -0.211199
1.220000 -0.196355
1.240000 -0.208650
1.260000 -0.231756
1.280000 -0.234794
1.300000 -0.204925
1.320000 -0.210429
1.340000 -0.268571
1.360000 -0.211815
1.380000 -0.198946
1.400000 -0.229823
1.420000 -0.226687
1.440000 -0.226448
1.460000 -0.196313
1.480000 -0.191692
1.500000 -0.228983
1.520000 -0.203483
1.540000 -0.150116
1.560000 -0.194787
1.580000 -0.183766
1.600000 -0.144893
1.620000 -0.170827
1.640000 -0.171317
1.660000 -0.162943
1.680000 -0.172129
1.700000 -0.160605
1.720000 -0.168895
1.740000 -0.176288
1.760000 -0.150298
1.780000 -0.177269
1.800000 -0.195417
1.820000 -0.147806
1.840000 -0.205724
1.860000 -0.170491
1.880000 -0.171849
1.900000 -0.218144
1.920000 -0.175154
1.940000 -0.199436
1.960000 -0.190292
1.980000 -0.179691
2.000000 -0.236055
2.020000 -0.206914
2.040000 -0.188905
2.060000 -0.249694
2.080000 -0.238393
2.100000 -0.233758
2.120000 -0.248378
2.140000 -0.254427
2.160000 -0.283806
2.180000 -0.273122
2.200000 -0.279731
2.220000 -0.300050
2.240000 -0.312177
2.260000 -0.315874
2.280000 -0.306114
2.300000 -0.350210
2.320000 -0.317316
2.340000 -0.332174
2.360000 -0.358528
2.380000 -0.321755
2.400000 -0.340758
2.420000 -0.340310
2.440000 -0.333042
2.460000 -0.330676
2.480000 -0.295289
2.500000 -0.314123
2.520000 -0.333322
2.540000 -0.289394
2.560000 -0.290248
2.580000 -0.273990
2.600000 -0.321601
2.620000 -0.284100
2.640000 -0.236587
2.660000 -0.290276
2.680000 -0.268655
2.700000 -0.247369
2.720000 -0.278303
2.740000 -0.231014
2.760000 -0.278219
2.780000 -0.273164
2.800000 -0.217766
2.820000 -0.290514
2.840000 -0.237987
2.860000 -0.240578
2.880000 -0.279801
2.900000 -0.212249
2.920000 -0.254819
2.940000 -0.230257
2.960000 -0.218144
2.980000 -0.248252
3.000000 -0.180910
3.020000 -0.203805
3.040000 -0.203357
3.060000 -0.147091
3.080000 -0.145691
3.100000 -0.143632
3.120000 -0.133886
3.140000 -0.101272
3.160000 -0.065032
3.180000 -0.091176
3.200000 -0.081640
3.220000 -0.019969
3.240000 -0.044223
3.260000 -0.014578
3.280000 -0.022055
3.300000 0.004523
3.320000 0.015530
3.340000 0.023792
3.360000 0.010657
3.380000 0.028609
3.400000 0.059416
3.420000 0.040610
3.440000 0.058646
3.460000 0.061405
3.480000 0.054599
3.500000 0.108134
3.520000 0.089594
3.540000 0.051210
3.560000 0.129223
3.580000 0.139712
3.600000 0.124154
3.620000 0.129797
3.640000 0.140048
3.660000 0.221071
3.680000 0.154807
3.700000 0.151671
3.720000 0.213803
3.740000 0.215400
3.760000 0.228773
3.780000 0.197559
3.800000 0.223228
3.820000 0.263753
3.840000 0.237007
3.860000 0.231966
3.880000 0.236657
3.900000 0.257942
3.920000 0.270727
3.940000 0.237413
3.960000 0.257914
3.980000 0.268683
4.000000 0.255225
4.020000 0.271749
4.040000 0.236993
4.060000 0.229487
4.080000 0.276875
4.100000 0.260603
4.120000 0.226939
4.140000 0.241390
4.160000 0.234528
4.180000 0.239388
4.200000 0.197882
4.220000 0.171793
4.240000 0.208286
4.260000 0.185111
4.280000 0.108736
4.300000 0.146671
4.320000 0.117026
4.340000 0.072649
4.360000 0.074694
4.380000 0.010489
4.400000 0.026578
4.420000 -0.019759
4.440000 -0.102967
4.460000 -0.069555
4.480000 -0.121003
4.500000 -0.192476
4.520000 -0.183122
4.540000 -0.248952
4.560000 -0.278807
4.580000 -0.322497
4.600000 -0.378539
4.620000 -0.405481
4.640000 -0.467867
4.660000 -0.503995
4.680000 -0.512397
4.700000 -0.600352
4.720000 -0.638679
4.740000 -0.675046
4.760000 -0.706806
4.780000 -0.759711
4.800000 -0.848044
4.820000 -0.834139
4.840000 -0.895753
4.860000 -0.951011
4.880000 -1.005372
4.900000 -1.039568
4.920000 -1.044259
4.940000 -1.119009
4.960000 -1.172544
4.980000 -1.189866
5.000000 -1.254492
5.020000 -1.282120
5.040000 -1.337167
5.060000 -1.400687
5.080000 -1.401023
5.100000 -1.445483
5.120000 -1.494677
5.140000 -1.541014
5.160000 -1.586469
5.180000 -1.574707
5.200000 -1.632050
5.220000 -1.691957
5.240000 -1.712472
5.260000 -1.711729
5.280000 -1.731278
5.300000 -1.803634
5.320000 -1.787432
5.340000 -1.768303
5.360000 -1.790526
5.380000 -1.805160
5.400000 -1.829918
5.420000 -1.781648
5.440000 -1.753432
5.460000 -1.824807
5.480000 -1.754118
5.500000 -1.711771
5.520000 -1.739400
5.540000 -1.663222
5.560000 -1.671036
5.580000 -1.651501
5.600000 -1.543577
5.620000 -1.551237
5.640000 -1.516929
5.660000 -1.426243
5.680000 -1.367233
5.700000 -1.326105
5.720000 -1.244521
5.740000 -1.182878
5.760000 -1.075459
5.780000 -0.984409
5.800000 -0.953069
5.820000 -0.833452
5.840000 -0.704775
5.860000 -0.624592
5.880000 -0.542574
5.900000 -0.411125
5.920000 -0.286873
5.940000 -0.148884
5.960000 -0.077705
5.980000 0.028021
6.000000 0.235369
6.020000 0.315832
6.040000 0.458610
6.060000 0.562221
6.080000 0.715404
6.100000 0.888500
6.120000 1.022890
6.140000 1.126767
6.160000 1.274138
6.180000 1.474358
6.200000 1.593625
6.220000 1.728435
6.240000 1.871746
6.260000 2.051801
6.280000 2.235469
6.300000 2.345060
6.320000 2.476383
6.340000 2.685454
6.360000 2.867805
6.380000 2.932795
6.400000 3.118424
6.420000 3.260376
6.440000 3.380581
6.460000 3.540807
6.480000 3.594692
6.500000 3.743170
6.520000 3.844036
6.540000 3.896549
6.560000 3.972041
6.580000 4.034020
6.600000 4.095985
6.620000 4.166730
6.640000 4.228751
6.660000 4.219690
6.680000 4.278420
6.700000 4.306329
6.720000 4.299566
6.740000 4.268086
6.760000 4.217534
6.780000 4.197089
6.800000 4.123711
6.820000 3.996309
6.840000 3.899797
6.860000 3.827806
6.880000 3.708862
6.900000 3.550554
6.920000 3.404246
6.940000 3.277418
6.960000 3.118634
6.980000 2.871502
7.000000 2.672066
7.020000 2.526907
7.040000 2.293023
7.060000 2.051101
7.080000 1.802961
7.100000 1.587226
7.120000 1.335459
7.140000 1.062505
7.160000 0.754291
7.180000 0.450320
7.200000 0.138885
7.220000 -0.224572
7.240000 -0.649938
7.260000 -1.064606
7.280000 -1.496106
7.300000 -1.965064
7.320000 -2.452760
7.340000 -2.951391
7.360000 -3.391181
7.380000 -3.780797
7.400000 -4.179375
7.420000 -4.566204
7.440000 -4.811445
7.460000 -5.026606
7.480000 -5.252201
7.500000 -5.534971
7.520000 -5.814352
7.540000 -6.091758
7.560000 -6.443551
7.580000 -6.670882
7.600000 -6.865206
7.620000 -7.085129
7.640000 -7.296818
7.660000 -7.457689
7.680000 -7.516741
7.700000 -7.616599
7.720000 -7.713166
7.740000 -7.705520
7.760000 -7.708237
7.780000 -7.769950
7.800000 -7.682163
7.820000 -7.557043
7.840000 -7.463528
7.860000 -7.328984
7.880000 -7.162372
7.900000 -6.916445
7.920000 -6.737664
7.940000 -6.526745
7.960000 -6.224524
7.980000 -5.961681
8.000000 -5.686543
8.020000 -5.349496
8.040000 -4.932812
8.060000 -4.574382
8.080000 -4.217450
8.100000 -3.809770
8.120000 -3.391685
8.140000 -3.062900
8.160000 -2.679138
8.180000 -2.300501
8.200000 -1.854592
8.220000 -1.434659
8.240000 -1.026363
8.260000 -0.509106
8.280000 -0.081009
8.300000 0.328253
8.320000 0.776823
8.340000 1.143739
8.360000 1.517979
8.380000 1.916445
8.400000 2.334235
8.420000 2.719986
8.440000 3.164551
8.460000 3.610558
8.480000 4.020773
8.500000 4.382241
8.520000 4.764379
8.540000 5.104731
8.560000 5.497554
8.580000 5.773602
8.600000 6.081256
8.620000 6.526199
8.640000 6.847576
8.660000 7.158661
8.680000 7.492613
8.700000 7.782721
8.720000 8.064441
8.740000 8.267587
8.760000 8.443162
8.780000 8.713665
8.800000 8.902948
8.820000 9.107187
8.840000 9.310810
8.860000 9.470281
8.880000 9.588749
8.900000 9.616770
8.920000 9.592768
8.940000 9.483052
8.960000 9.328791
8.980000 9.166758
9.000000 8.969982
9.020000 8.771695
9.040000 8.587536
9.060000 8.432141
9.080000 8.252254
9.100000 8.010864
9.120000 7.775313
9.140000 7.541737
9.160000 7.272466
9.180000 6.949899
9.200000 6.658335
9.220000 6.398670
9.240000 6.083692
9.260000 5.720753
9.280000 5.309964
9.300000 4.847195
9.320000 4.239001
9.340000 3.582173
9.360000 2.889651
9.380000 2.165214
9.400000 1.430556
9.420000 0.702563
9.440000 0.065452
9.460000 -0.543905
9.480000 -1.130744
9.500000 -1.690514
9.520000 -2.227670
9.540000 -2.707859
9.560000 -3.246064
9.580000 -3.704479
9.600000 -4.170609
9.620000 -4.567268
9.640000 -4.903251
9.660000 -5.229151
9.680000 -5.487135
9.700000 -5.744181
9.720000 -5.932666
9.740000 -6.128405
9.760000 -6.393811
9.780000 -6.655506
9.800000 -6.857546
9.820000 -7.134967
9.840000 -7.498158
9.860000 -7.812254
9.880000 -8.203326
9.900000 -8.626480
9.920000 -9.031415
9.940000 -9.213669
9.960000 -9.316650
9.980000 -9.532245
10.000000 -9.691464
10.020000 -9.737885
10.040000 -9.804947
10.060000 -9.968884
10.080000 -9.868102
10.100000 -9.693816
10.120000 -9.678651
10.140000 -9.583736
10.160000 -9.277174
10.180000 -8.874885
10.200000 -8.559558
10.220000 -8.250195
10.240000 -7.905894
10.260000 -7.725405
10.280000 -7.502738
10.300000 -7.083309
10.320000 -6.726293
10.340000 -6.422742
10.360000 -5.941866
10.380000 -5.260897
10.400000 -4.618030
10.420000 -4.123669
10.440000 -3.511680
10.460000 -2.867973
10.480000 -2.525437
10.500000 -2.145890
10.520000 -1.648896
10.540000 -1.193829
10.560000 -0.733454
10.580000 -0.243533
10.600000 0.474910
10.620000 1.031908
10.640000 1.484007
10.660000 2.113682
10.680000 2.560389
10.700000 2.918358
10.720000 3.338739
10.740000 3.765729
10.760000 4.223583
10.780000 4.613535
10.800000 5.120191
10.820000 5.659797
10.840000 6.024864
10.860000 6.356646
10.880000 6.763570
10.900000 7.079108
10.920000 7.279636
10.940000 7.542605
10.960000 7.964303
10.980000 8.276704
11.000000 8.499721
11.020000 8.887390
11.040000 9.087316
11.060000 9.259880
11.080000 9.362217
11.100000 9.418174
11.120000 9.569676
11.140000 9.592348
11.160000 9.688957
11.180000 9.898321
11.200000 9.946577
11.220000 9.919747
11.240000 9.913221
11.260000 9.788185
11.280000 9.513159
11.300000 9.147447
11.320000 8.867534
11.340000 8.586192
11.360000 8.251680
11.380000 7.988668
11.400000 7.799343
11.420000 7.586422
11.440000 7.286316
11.460000 6.984389
11.480000 6.691032
11.500000 6.325377
11.520000 5.937973
11.540000 5.625894
11.560000 5.357324
11.580000 5.014787
11.600000 4.679225
11.620000 4.342430
11.640000 3.930367
11.660000 3.302400
11.680000 2.663090
11.700000 2.063606
11.720000 1.325657
11.740000 0.587077
11.760000 -0.055047
11.780000 -0.576897
11.800000 -1.065278
11.820000 -1.614784
11.840000 -2.070594
11.860000 -2.474479
11.880000 -2.884161
11.900000 -3.399107
11.920000 -3.775756
11.940000 -4.079265
11.960000 -4.390195
11.980000 -4.568066
12.000000 -4.729595
12.020000 -4.793296
12.040000 -4.929563
12.060000 -5.066908
12.080000 -5.204869
12.100000 -5.462293
12.120000 -5.703515
12.140000 -5.947692
12.160000 -6.182822
12.180000 -6.512125
12.200000 -6.800133
12.220000 -7.048608
12.240000 -7.376007
12.260000 -7.776643
12.280000 -8.003386
12.300000 -8.095402
12.320000 -8.300579
12.340000 -8.476098
12.360000 -8.542628
12.380000 -8.401376
12.400000 -8.469138
12.420000 -8.680309
12.440000 -8.556463
12.460000 -8.421540
12.480000 -8.366409
12.500000 -8.311320
12.520000 -8.158235
12.540000 -7.815979
12.560000 -7.502191
12.580000 -7.276779
12.600000 -7.004484
12.620000 -6.828307
12.640000 -6.682112
12.660000 -6.373618
12.680000 -6.122384
12.700000 -5.922472
12.720000 -5.588141
12.740000 -5.032376
12.760000 -4.592698
12.780000 -4.197467
12.800000 -3.724909
12.820000 -3.309738
12.840000 -2.980939
12.860000 -2.774627
12.880000 -2.472042
12.900000 -2.084947
12.920000 -1.798984
12.940000 -1.406176
12.960000 -0.859611
12.980000 -0.407484
13.000000 -0.025836
13.020000 0.419275
13.040000 0.775871
13.060000 1.055616
13.080000 1.334241
13.100000 1.693903
13.120000 2.034829
13.140000 2.389240
13.160000 2.859319
13.180000 3.324273
13.200000 3.709730
13.220000 3.986674
13.240000 4.365605
13.260000 4.709738
13.280000 4.882218
13.300000 5.230509
13.320000 5.633442
13.340000 6.007528
13.360000 6.391893
13.380000 6.753810
13.400000 7.132391
13.420000 7.464200
13.440000 7.608267
13.460000 7.890561
13.480000 8.136166
13.500000 8.321164
13.520000 8.654122
13.540000 8.971607
13.560000 9.251660
13.580000 9.531489
13.600000 9.815632
13.620000 9.941368
13.640000 9.927336
13.660000 9.910504
13.680000 9.884654
13.700000 9.790860
13.720000 9.613199
13.740000 9.479229
13.760000 9.410388
13.780000 9.260846
13.800000 9.007357
13.820000 8.780629
13.840000 8.587606
13.860000 8.264115
13.880000 7.971332
13.900000 7.703182
13.920000 7.442047
13.940000 7.182635
13.960000 6.956074
13.980000 6.615148
14.000000 6.195425
14.020000 5.711987
14.040000 5.086527
14.060000 4.428971
14.080000 3.590001
14.100000 2.868324
14.120000 2.218945
14.140000 1.396556
14.160000 0.682468
14.180000 0.080631
14.200000 -0.545585
14.220000 -1.141862
14.240000 -1.835281
14.260000 -2.363432
14.280000 -2.757319
14.300000 -3.346987
14.320000 -3.860644
14.340000 -4.150892
14.360000 -4.469356
14.380000 -4.801922
14.400000 -5.158252
14.420000 -5.379169
14.440000 -5.553301
14.460000 -5.811397
14.480000 -5.993245
14.500000 -6.158064
14.520000 -6.257236
14.540000 -6.410167
14.560000 -6.625021
14.580000 -6.803956
14.600000 -7.075271
14.620000 -7.369047
14.640000 -7.705226
14.660000 -8.184169
14.680000 -8.387596
14.700000 -8.384418
14.720000 -8.519088
14.740000 -8.646491
14.760000 -8.619072
14.780000 -8.540695
14.800000 -8.584246
14.820000 -8.731589
14.840000 -8.612644
14.860000 -8.356397
14.880000 -8.346622
14.900000 -8.277600
14.920000 -7.889735
14.940000 -7.459775
14.960000 -7.149251
14.980000 -6.883663
15.000000 -6.647524
15.020000 -6.473420
15.040000 -6.332154
15.060000 -6.039890
15.080000 -5.768337
15.100000 -5.573914
15.120000 -5.107420
15.140000 -4.500332
15.160000 -4.075988
15.180000 -3.720806
15.200000 -3.260642
15.220000 -2.868352
15.240000 -2.726960
15.260000 -2.538012
15.280000 -2.164612
15.300000 -1.864212
15.320000 -1.565898
15.340000 -1.143095
15.360000 -0.649756
15.380000 -0.196411
15.400000 0.052709
15.420000 0.438235
15.440000 0.775310
15.460000 0.890516
15.480000 1.234047
15.500000 1.613874
15.520000 1.952559
15.540000 2.378402
15.560000 2.843299
15.580000 3.350922
15.600000 3.641309
15.620000 3.947409
15.640000 4.354291
15.660000 4.667532
15.680000 4.935234
15.700000 5.345883
15.720000 5.884397
15.740000 6.342769
15.760000 6.695906
15.780000 7.165901
15.800000 7.591491
15.820000 7.785480
15.840000 8.033017
15.860000 8.284531
15.880000 8.540905
15.900000 8.824879
15.920000 9.011656
15.940000 9.421199
15.960000 9.680877
15.980000 9.798884
16.000000 9.997521
16.020000 9.948860
16.040000 9.803421
16.060000 9.704753
16.080000 9.537861
16.100000 9.298389
16.120000 9.029763
16.140000 8.803860
16.160000 8.635764
16.180000 8.323559
16.200000 7.917713
16.220000 7.621948
16.240000 7.329292
16.260000 6.929384
16.280000 6.518441
16.300000 6.279389
16.320000 6.068625
16.340000 5.761461
16.360000 5.516948
16.380000 5.195389
16.400000 4.882316
16.420000 4.472241
16.440000 3.911546
16.460000 3.424285
16.480000 2.911790
16.500000 2.391817
16.520000 1.889530
16.540000 1.349028
16.560000 0.814072
16.580000 0.351064
16.600000 -0.095727
16.620000 -0.656324
16.640000 -1.155306
16.660000 -1.553926
16.680000 -1.900005
16.700000 -2.260717
16.720000 -2.712718
16.740000 -2.980939
16.760000 -3.184646
16.780000 -3.547823
16.800000 -3.930325
16.820000 -4.268240
16.840000 -4.526028
16.860000 -4.810240
16.880000 -5.178333
16.900000 -5.483494
16.920000 -5.703333
16.940000 -6.027721
16.960000 -6.383701
16.980000 -6.800903
17.000000 -7.215963
17.020000 -7.636260
17.040000 -8.138420
17.060000 -8.593558
17.080000 -9.138429
17.100000 -9.624009
17.120000 -9.692360
17.140000 -9.844661
17.160000 -10.016480
17.180000 -10.081750
17.200000 -10.037190
17.220000 -9.977356
17.240000 -10.167750
17.260000 -10.118080
17.280000 -9.760332
17.300000 -9.480783
17.320000 -9.331115
17.340000 -8.895484
17.360000 -8.263540
17.380000 -7.750625
17.400000 -7.260647
17.420000 -6.734541
17.440000 -6.360245
17.460000 -6.108800
17.480000 -5.674836
17.500000 -5.152959
17.520000 -4.787037
17.540000 -4.395909
17.560000 -3.718552
17.580000 -3.004982
17.600000 -2.605900
17.620000 -2.085913
17.640000 -1.535371
17.660000 -1.186729
17.680000 -0.994757
17.700000 -0.690772
17.720000 -0.250492
17.740000 -0.025024
17.760000 0.291788
17.780000 0.798346
17.800000 1.215086
17.820000 1.491961
17.840000 1.796618
17.860000 2.241463
17.880000 2.495064
17.900000 2.627662
17.920000 3.010878
17.940000 3.446803
17.960000 3.677130
17.980000 4.044200
18.000000 4.526728
18.020000 4.895395
18.040000 5.136673
18.060000 5.429413
18.080000 5.799060
18.100000 6.036907
18.120000 6.257824
18.140000 6.668529
18.160000 7.059349
18.180000 7.345760
18.200000 7.609051
18.220000 7.997939
18.240000 8.204082
18.260000 8.243572
18.280000 8.409456
18.300000 8.606637
18.320000 8.672537
18.340000 8.751236
18.360000 8.937396
18.380000 9.148329
18.400000 9.191460
18.420000 9.186334
18.440000 9.257191
18.460000 9.133178
18.480000 8.935478
18.500000 8.769426
18.520000 8.626592
18.540000 8.415645
18.560000 8.132959
18.580000 8.024545
18.600000 7.859837
18.620000 7.549859
18.640000 7.278754
18.660000 7.062752
18.680000 6.870164
18.700000 6.532878
18.720000 6.266744
18.740000 6.173860
18.760000 5.978667
18.780000 5.731144
18.800000 5.527185
18.820000 5.311911
18.840000 4.996499
18.860000 4.619262
18.880000 4.180761
18.900000 3.774201
18.920000 3.221110
18.940000 2.666353
18.960000 2.173532
18.980000 1.475409
19.000000 0.777047
19.020000 0.115542
19.040000 -0.491854
19.060000 -1.227521
19.080000 -1.981392
19.100000 -2.513394
19.120000 -2.964793
19.140000 -3.542908
19.160000 -4.124832
19.180000 -4.480853
19.200000 -4.813951
19.220000 -5.344637
19.240000 -5.820191
19.260000 -6.107344
19.280000 -6.319173
19.300000 -6.686285
19.320000 -6.999233
19.340000 -7.162596
19.360000 -7.353336
19.380000 -7.699555
19.400000 -8.088386
19.420000 -8.423039
19.440000 -8.892250
19.460000 -9.446349
19.480000 -9.946423
19.500000 -10.079650
19.520000 -10.113930
19.540000 -10.295740
19.560000 -10.303770
19.580000 -10.147880
19.600000 -10.045230
19.620000 -10.103220
19.640000 -10.079170
19.660000 -9.839227
19.680000 -9.650616
19.700000 -9.493120
19.720000 -9.125728
19.740000 -8.621691
19.760000 -8.160938
19.780000 -7.644592
19.800000 -7.077833
19.820000 -6.716365
19.840000 -6.570575
19.860000 -6.296628
19.880000 -5.805011
19.900000 -5.514638
19.920000 -5.264005
19.940000 -4.670767
19.960000 -3.982865
19.980000 -3.565747
20.000000 -3.132693
20.020000 -2.602974
20.040000 -2.206230
20.060000 -2.046508
20.080000 -1.809949
20.100000 -1.408403
20.120000 -1.103129
20.140000 -0.811761
20.160000 -0.307388
20.180000 0.155927
20.200000 0.533136
20.220000 0.861585
20.240000 1.223432
20.260000 1.567873
20.280000 1.715902
20.300000 2.088602
20.320000 2.560516
20.340000 2.858073
20.360000 3.294418
20.380000 3.819964
20.400000 4.270299
20.420000 4.555883
20.440000 4.840110
20.460000 5.279787
20.480000 5.572374
20.500000 5.798682
20.520000 6.240712
20.540000 6.719865
20.560000 7.124969
20.580000 7.441823
20.600000 7.820348
20.620000 8.144904
20.640000 8.253066
20.660000 8.386896
20.680000 8.564795
20.700000 8.704548
20.720000 8.865293
20.740000 9.046931
20.760000 9.324758
20.780000 9.431729
20.800000 9.481805
20.820000 9.564943
20.840000 9.476218
20.860000 9.265089
20.880000 9.106501
20.900000 8.970304
20.920000 8.790515
20.940000 8.533819
20.960000 8.410030
20.980000 8.329776
21.000000 8.037078
21.020000 7.760456
21.040000 7.558807
21.060000 7.326239
21.080000 7.046620
21.100000 6.727777
21.120000 6.633423
21.140000 6.510907
21.160000 6.246328
21.180000 6.097010
21.200000 5.912879
21.220000 5.651451
21.240000 5.231910
21.260000 4.804583
21.280000 4.423327
21.300000 3.831027
21.320000 3.273875
21.340000 2.777442
21.360000 2.137390
21.380000 1.513148
21.400000 0.808106
21.420000 0.164624
21.440000 -0.442632
21.460000 -1.227185
21.480000 -1.871802
21.500000 -2.333269
21.520000 -2.921760
21.540000 -3.470034
21.560000 -3.904489
21.580000 -4.347639
21.600000 -4.783746
21.620000 -5.326194
21.640000 -5.753675
21.660000 -6.019543
21.680000 -6.402157
21.700000 -6.687069
21.720000 -6.868217
21.740000 -7.062290
21.760000 -7.283179
21.780000 -7.553556
21.800000 -7.894804
21.820000 -8.266201
21.840000 -8.766135
21.860000 -9.250134
21.880000 -9.439417
21.900000 -9.472829
21.920000 -9.576790
21.940000 -9.580179
21.960000 -9.499155
21.980000 -9.421451
22.000000 -9.406397
22.020000 -9.281907
22.040000 -9.124902
22.060000 -8.985092
22.080000 -8.837973
22.100000 -8.553242
22.120000 -8.088722
22.140000 -7.684123
22.160000 -7.251027
22.180000 -6.774086
22.200000 -6.540664
22.220000 -6.481416
22.240000 -6.225140
22.260000 -5.865968
22.280000 -5.690184
22.300000 -5.459590
22.320000 -4.963619
22.340000 -4.374512
22.360000 -3.961594
22.380000 -3.621018
22.400000 -3.137636
22.420000 -2.850875
22.440000 -2.740921
22.460000 -2.522734
22.480000 -2.176039
22.500000 -1.954450
22.520000 -1.622052
22.540000 -1.112707
22.560000 -0.687789
22.580000 -0.292488
22.600000 0.036689
22.620000 0.453079
22.640000 0.752331
22.660000 0.886609
22.680000 1.295633
22.700000 1.773064
22.720000 2.084177
22.740000 2.536220
22.760000 3.116729
22.780000 3.572833
22.800000 3.871133
22.820000 4.217422
22.840000 4.618198
22.860000 4.932700
22.880000 5.160787
22.900000 5.627239
22.920000 6.147884
22.940000 6.532752
22.960000 6.910941
22.980000 7.355856
23.000000 7.696250
23.020000 7.816133
23.040000 8.016381
23.060000 8.261370
23.080000 8.403616
23.100000 8.581081
23.120000 8.862590
23.140000 9.143582
23.160000 9.316468
23.180000 9.441700
23.200000 9.589071
23.220000 9.583652
23.240000 9.371809
23.260000 9.294244
23.280000 9.241340
23.300000 9.006279
23.320000 8.794716
23.340000 8.661320
23.360000 8.539981
23.380000 8.289293
23.400000 7.954808
23.420000 7.733331
23.440000 7.528070
23.460000 7.180436
23.480000 6.883215
23.500000 6.780472
23.520000 6.561599
23.540000 6.335193
23.560000 6.171283
23.580000 5.907642
23.600000 5.539172
23.620000 5.132430
23.640000 4.706741
23.660000 4.230599
23.680000 3.600209
23.700000 3.026197
23.720000 2.544090
23.740000 1.907455
23.760000 1.154704
23.780000 0.520981
23.800000 -0.047962
23.820000 -0.711161
23.840000 -1.471684
23.860000 -1.991069
23.880000 -2.408635
23.900000 -2.906665
23.920000 -3.386854
23.940000 -3.781525
23.960000 -4.055235
23.980000 -4.481875
24.000000 -4.919523
24.020000 -5.185881
24.040000 -5.460263
24.060000 -5.744895
24.080000 -5.926435
24.100000 -6.076271
24.120000 -6.289122
24.140000 -6.491695
24.160000 -6.726041
24.180000 -7.013642
24.200000 -7.391831
24.220000 -7.829352
24.240000 -8.154552
24.260000 -8.571516
24.280000 -8.928924
24.300000 -8.927706
24.320000 -8.835970
24.340000 -8.943768
24.360000 -9.002624
24.380000 -8.800219
24.400000 -8.724111
24.420000 -8.853446
24.440000 -8.846655
24.460000 -8.514845
24.480000 -8.220634
24.500000 -8.129346
24.520000 -7.792383
24.540000 -7.264624
24.560000 -6.841345
24.580000 -6.502813
24.600000 -6.253469
24.620000 -6.062855
24.640000 -5.955030
24.660000 -5.729953
24.680000 -5.347213
24.700000 -5.168040
24.720000 -4.921525
24.740000 -4.336562
24.760000 -3.817850
24.780000 -3.586570
24.800000 -3.268806
24.820000 -2.829114
24.840000 -2.571410
24.860000 -2.543389
24.880000 -2.246812
24.900000 -1.863120
24.920000 -1.588360
24.940000 -1.272738
24.960000 -0.846531
24.980000 -0.367056
25.000000 -0.053507
25.020000 0.205737
25.040000 0.651087
25.060000 0.942777
25.080000 1.199724
25.100000 1.712990
25.120000 2.121160
25.140000 2.536080
25.160000 3.034894
25.180000 3.572959
25.200000 4.007021
25.220000 4.275690
25.240000 4.692500
25.260000 5.195025
25.280000 5.488507
25.300000 5.847176
25.320000 6.411399
25.340000 6.932450
25.360000 7.313874
25.380000 7.630224
25.400000 8.074089
25.420000 8.355515
25.440000 8.534296
25.460000 8.675295
25.480000 8.525725
25.500000 10.156500
25.520000 8.300733
25.540000 9.260552
25.560000 11.311220
25.580000 7.965661
25.600000 11.311890
25.620000 9.185830
25.640000 9.016375
25.660000 12.036640
25.680000 7.014398
25.700000 9.324099
25.720000 10.503380
25.740000 7.683801
25.760000 8.698373
25.780000 7.896456
25.800000 7.651103
25.820000 8.984896
25.840000 6.211333
25.860000 6.060979
25.880000 8.134373
25.900000 5.634128
25.920000 6.661303
25.940000 4.982874
25.960000 5.343348
25.980000 7.322794
26.000000 2.934041
26.020000 5.464800
26.040000 4.291374
26.060000 2.801149
26.080000 5.138479
26.100000 0.925917
26.120000 2.284887
26.140000 2.656663
26.160000 -0.417006
26.180000 1.394637
26.200000 -0.934179
26.220000 -1.951523
26.240000 0.273276
26.260000 -3.351146
26.280000 -2.994900
26.300000 -2.316829
26.320000 -4.811459
26.340000 -2.389646
26.360000 -5.215330
26.380000 -5.660119
26.400000 -3.261524
26.420000 -6.313642
26.440000 -5.288623
26.460000 -6.064816
26.480000 -6.296250
26.500000 -5.161585
26.520000 -7.306480
26.540000 -6.554080
26.560000 -6.742775
26.580000 -7.219211
26.600000 -7.176879
26.620000 -8.584035
26.640000 -8.199223
26.660000 -8.292625
26.680000 -9.604587
26.700000 -8.964395
26.720000 -9.225040
26.740000 -9.442050
26.760000 -8.403868
26.780000 -9.525678
26.800000 -8.845114
26.820000 -8.601274
26.840000 -8.994894
26.860000 -8.313140
26.880000 -9.088129
26.900000 -8.074383
26.920000 -7.667305
26.940000 -7.606460
26.960000 -7.170438
26.980000 -6.842563
27.000000 -5.661995
27.020000 -6.101113
27.040000 -5.968991
27.060000 -5.517354
27.080000 -5.295415
27.100000 -4.770569
27.120000 -5.059780
27.140000 -4.486861
27.160000 -3.419398
27.180000 -3.495128
27.200000 -3.069258
27.220000 -2.318943
27.240000 -2.485640
27.260000 -1.812260
27.280000 -1.693049
27.300000 -1.777993
27.320000 -1.093145
27.340000 -0.895655
27.360000 -0.314558
27.380000 -0.156964
27.400000 0.261149
27.420000 0.904155
27.440000 1.112049
27.460000 1.449937
27.480000 1.434099
27.500000 2.218889
27.520000 2.687624
27.540000 2.605396
27.560000 3.311782
27.580000 3.892082
27.600000 4.367300
27.620000 4.641136
27.640000 4.873269
27.660000 5.433348
27.680000 5.893835
27.700000 5.958614
27.720000 6.467063
27.740000 6.943079
27.760000 7.280042
27.780000 7.874961
27.800000 8.033717
27.820000 8.096256
27.840000 8.138196
27.860000 9.939967
27.880000 7.529316
27.900000 8.382331
27.920000 10.856400
27.940000 7.464452
27.960000 10.118940
27.980000 9.092484
28.000000 8.975486
28.020000 11.398950
28.040000 7.232627
28.060000 9.456263
28.080000 10.628500
28.100000 7.730026
28.120000 8.332997
28.140000 9.171323
28.160000 7.844980
28.180000 8.478044
28.200000 7.382225
28.220000 6.584761
28.240000 9.037675
28.260000 5.357114
28.280000 6.336453
28.300000 7.263602
28.320000 4.969977
28.340000 6.194921
28.360000 5.108176
28.380000 5.909799
28.400000 4.349964
28.420000 4.371053
28.440000 5.301969
28.460000 2.722114
28.480000 3.736798
28.500000 2.716079
28.520000 1.898870
28.540000 2.712466
28.560000 0.312471
28.580000 -0.186091
28.600000 1.583375
28.620000 -1.697432
28.640000 -2.312782
28.660000 -0.749670
28.680000 -3.568884
28.700000 -2.741999
28.720000 -3.843770
28.740000 -4.396119
28.760000 -3.662440
28.780000 -5.186105
28.800000 -5.133494
28.820000 -5.564294
28.840000 -5.073728
28.860000 -6.765446
28.880000 -5.933366
28.900000 -6.019193
28.920000 -7.626891
28.940000 -5.793235
28.960000 -7.536276
28.980000 -7.384171
29.000000 -7.174821
29.020000 -8.721170
29.040000 -8.012432
29.060000 -8.368272
29.080000 -10.377780
29.100000 -9.271517
29.120000 -8.074817
29.140000 -10.580020
29.160000 -8.855183
29.180000 -9.056565
29.200000 -8.887698
29.220000 -8.088764
29.240000 -9.882246
29.260000 -8.181817
29.280000 -8.187040
29.300000 -8.151079
29.320000 -8.534436
29.340000 -7.423226
29.360000 -5.852861
29.380000 -7.603562
29.400000 -5.637685
29.420000 -5.344301
29.440000 -5.955086
29.460000 -4.722915
29.480000 -5.343629
29.500000 -4.975200
29.520000 -3.925186
29.540000 -4.514531
29.560000 -3.559026
29.580000 -2.621822
29.600000 -3.583139
29.620000 -1.577843
29.640000 -1.854634
29.660000 -2.518183
29.680000 -1.084519
29.700000 -1.582856
29.720000 -0.865268
29.740000 -1.064312
29.760000 -0.673310
29.780000 0.344553
29.800000 0.379323
29.820000 0.539270
29.840000 0.649448
29.860000 2.021022
29.880000 1.358789
29.900000 1.445652
29.920000 2.846800
29.940000 2.461106
29.960000 3.085656
29.980000 3.934190
30.000000 3.846263
30.020000 4.553517
30.040000 5.259594
30.060000 4.964039
30.080000 5.898120
30.100000 5.999574
30.120000 6.159633
30.140000 7.489266
30.160000 7.086950
30.180000 7.583397
30.200000 8.440809
30.220000 8.670408
30.240000 8.542221
30.260000 8.635064
30.280000 9.248383
30.300000 9.178800
30.320000 9.295981
30.340000 9.142238
30.360000 9.761481
30.380000 10.090600
30.400000 9.427304
30.420000 9.819328
30.440000 9.826820
30.460000 9.350832
30.480000 9.253158
30.500000 8.975360
30.520000 8.461590
30.540000 8.549251
30.560000 8.112542
30.580000 7.621248
30.600000 7.682261
30.620000 6.930336
30.640000 6.802891
30.660000 6.623746
30.680000 5.751407
30.700000 5.500396
30.720000 5.637363
30.740000 5.196369
30.760000 4.556723
30.780000 4.689349
30.800000 4.441294
30.820000 4.050558
30.840000 3.633327
30.860000 2.879456
30.880000 2.965549
30.900000 2.486088
30.920000 1.497520
30.940000 1.248638
30.960000 0.996242
30.980000 0.206214
31.000000 -0.317400
31.020000 -0.905010
31.040000 -1.542989
31.060000 -1.803354
31.080000 -2.614260
31.100000 -3.073893
31.120000 -3.294320
31.140000 -3.821015
31.160000 -3.957687
31.180000 -4.280017
31.200000 -4.748682
31.220000 -4.940444
31.240000 -4.984904
31.260000 -5.432144
31.280000 -5.854583
31.300000 -5.858616
31.320000 -6.097850
31.340000 -6.261255
31.360000 -6.667535
31.380000 -7.060637
31.400000 -7.096738
31.420000 -7.507751
31.440000 -8.294572
31.460000 -8.516791
31.480000 -8.801046
31.500000 -9.324828
31.520000 -9.047491
31.540000 -9.040839
31.560000 -9.108714
31.580000 -8.798161
31.600000 -8.751082
31.620000 -8.534001
31.640000 -8.505687
31.660000 -8.708651
31.680000 -8.483953
31.700000 -8.061640
31.720000 -7.948885
31.740000 -7.542409
31.760000 -6.910339
31.780000 -6.547568
31.800000 -6.005974
31.820000 -5.681362
31.840000 -5.602215
31.860000 -5.369941
31.880000 -5.152847
31.900000 -4.989413
31.920000 -4.673217
31.940000 -4.323721
31.960000 -3.911994
31.980000 -3.179632
32.000000 -2.859697
32.020000 -2.544524
32.040000 -2.028542
32.060000 -1.965484
32.080000 -1.847660
32.100000 -1.539138
32.120000 -1.400169
32.140000 -1.057156
32.160000 -0.595297
32.180000 -0.242468
32.200000 0.219097
32.220000 0.677455
32.240000 0.854191
32.260000 1.274838
32.280000 1.538060
32.300000 1.711884
32.320000 2.214590
32.340000 2.653778
32.360000 3.043688
32.380000 3.607743
32.400000 4.169838
32.420000 4.569256
32.440000 4.998025
32.460000 5.328001
32.480000 5.637545
32.500000 6.088075
32.520000 6.390044
32.540000 6.857602
32.560000 7.403580
32.580000 7.760596
32.600000 8.204054
32.620000 8.532069
32.640000 8.651378
32.660000 8.819852
32.680000 8.956511
32.700000 8.998157
32.720000 9.171953
32.740000 9.328833
32.760000 9.490417
32.780000 9.741610
32.800000 9.721557
32.820000 9.694040
32.840000 9.689657
32.860000 9.413343
32.880000 9.075694
32.900000 8.894210
32.920000 8.596751
32.940000 8.292878
32.960000 8.105498
32.980000 7.810125
33.000000 7.590637
33.020000 7.311298
33.040000 6.857392
33.060000 6.528271
33.080000 6.208084
33.100000 5.802309
33.120000 5.526120
33.140000 5.300876
33.160000 5.040834
33.180000 4.880579
33.200000 4.594140
33.220000 4.210210
33.240000 3.854665
33.260000 3.410604
33.280000 2.886388
33.300000 2.296202
33.320000 1.791185
33.340000 1.308867
33.360000 0.775184
33.380000 0.139530
33.400000 -0.455880
33.420000 -0.879803
33.440000 -1.538928
33.460000 -2.201147
33.480000 -2.702832
33.500000 -3.149847
33.520000 -3.516707
33.540000 -3.916545
33.560000 -4.307225
33.580000 -4.430259
33.600000 -4.651456
33.620000 -5.057694
33.640000 -5.270573
33.660000 -5.476913
33.680000 -5.749488
33.700000 -5.976749
33.720000 -6.256382
33.740000 -6.452457
33.760000 -6.581988
33.780000 -6.920856
33.800000 -7.280000
33.820000 -7.628446
33.840000 -7.999717
33.860000 -8.452418
33.880000 -8.922427
33.900000 -9.130125
33.920000 -9.000468
33.940000 -8.958331
33.960000 -9.015535
33.980000 -8.856597
34.000000 -8.615053
34.020000 -8.508585
34.040000 -8.587438
34.060000 -8.637738
34.080000 -8.423599
34.100000 -8.188314
34.120000 -7.888670
34.140000 -7.487712
34.160000 -7.046970
34.180000 -6.520443
34.200000 -6.041598
34.220000 -5.723638
34.240000 -5.655694
34.260000 -5.501713
34.280000 -5.117964
34.300000 -4.955735
34.320000 -4.772095
34.340000 -4.269234
34.360000 -3.730637
34.380000 -3.153656
34.400000 -2.737798
34.420000 -2.381552
34.440000 -1.943135
34.460000 -1.798228
34.480000 -1.656514
34.500000 -1.388350
34.520000 -1.180274
34.540000 -0.795083
34.560000 -0.368513
34.580000 0.039153
34.600000 0.435197
34.620000 0.811887
34.640000 1.182626
34.660000 1.363172
34.680000 1.586805
34.700000 1.902833
34.720000 2.317935
34.740000 2.685762
34.760000 3.041097
34.780000 3.656699
34.800000 4.184024
34.820000 4.440047
34.840000 4.820057
34.860000 5.185797
34.880000 5.499038
34.900000 5.842400
34.920000 6.168203
34.940000 6.674214
34.960000 7.205012
34.980000 7.561300
35.000000 7.970128
35.020000 8.248221
35.040000 8.450653
35.060000 8.636450
35.080000 8.705571
35.100000 8.815791
35.120000 8.966215
35.140000 9.240513
35.160000 9.437009
35.180000 9.513873
35.200000 9.662099
35.220000 9.708884
35.240000 9.596815
35.260000 9.307141
35.280000 9.045404
35.300000 8.929176
35.320000 8.638691
35.340000 8.276942
35.360000 8.100695
35.380000 7.933061
35.400000 7.670092
35.420000 7.281960
35.440000 6.860557
35.460000 6.598582
35.480000 6.274348
35.500000 5.815654
35.520000 5.578143
35.540000 5.382908
35.560000 5.189283
35.580000 4.966966
35.600000 4.658206
35.620000 4.296499
35.640000 3.945925
35.660000 3.507955
35.680000 2.933439
35.700000 2.397936
35.720000 1.916417
35.740000 1.443117
35.760000 0.886917
35.780000 0.225692
35.800000 -0.308298
35.820000 -0.819659
35.840000 -1.507238
35.860000 -2.157499
35.880000 -2.701403
35.900000 -3.136292
35.920000 -3.559712
35.940000 -4.011516
35.960000 -4.301120
35.980000 -4.526700
36.000000 -4.856437
36.020000 -5.168600
36.040000 -5.452967
36.060000 -5.692550
36.080000 -5.947356
36.100000 -6.188004
36.120000 -6.355358
36.140000 -6.584159
36.160000 -6.749314
36.180000 -7.012424
36.200000 -7.365211
36.220000 -7.724957
36.240000 -8.120496
36.260000 -8.510364
36.280000 -8.954859
36.300000 -9.251842
36.320000 -9.052280
36.340000 -8.952212
36.360000 -9.021067
36.380000 -8.893818
36.400000 -8.609578
36.420000 -8.386532
36.440000 -8.487328
36.460000 -8.594454
36.480000 -8.356873
36.500000 -8.039795
36.520000 -7.773969
36.540000 -7.403706
36.560000 -6.929706
36.580000 -6.380298
36.600000 -5.867214
36.620000 -5.585033
36.640000 -5.478593
36.660000 -5.295163
36.680000 -4.974094
36.700000 -4.769463
36.720000 -4.628309
36.740000 -4.193336
36.760000 -3.648885
36.780000 -3.080180
36.800000 -2.751395
36.820000 -2.379438
36.840000 -1.913532
36.860000 -1.781956
36.880000 -1.675181
36.900000 -1.446828
36.920000 -1.149928
36.940000 -0.814436
36.960000 -0.480679
36.980000 -0.055495
37.000000 0.374478
37.020000 0.741114
37.040000 1.037747
37.060000 1.284319
37.080000 1.546910
37.100000 1.830212
37.120000 2.228804
37.140000 2.604682
37.160000 3.001846
37.180000 3.567470
37.200000 4.098253
37.220000 4.429153
37.240000 4.759142
37.260000 5.179635
37.280000 5.545893
37.300000 5.848142
37.320000 6.173510
37.340000 6.697810
37.360000 7.229406
37.380000 7.577418
37.400000 7.932725
37.420000 8.271984
37.440000 8.546576
37.460000 8.636884
37.480000 8.751278
37.500000 8.906687
37.520000 9.057097
37.540000 9.312239
37.560000 9.445383
37.580000 9.631277
37.600000 9.772025
37.620000 9.739313
37.640000 9.703885
37.660000 9.438185
37.680000 9.160792
37.700000 9.055585
37.720000 8.754512
37.740000 8.409315
37.760000 8.222707
37.780000 7.998835
37.800000 7.751241
37.820000 7.335509
37.840000 6.888298
37.860000 6.624684
37.880000 6.277807
37.900000 5.794873
37.920000 5.492050
37.940000 5.302977
37.960000 5.083194
37.980000 4.790047
38.000000 4.469945
38.020000 4.108784
38.040000 3.732639
38.060000 3.253108
38.080000 2.661494
38.100000 2.122084
38.120000 1.635901
38.140000 1.170107
38.160000 0.586055
38.180000 -0.012715
38.200000 -0.548428
38.220000 -0.999756
38.240000 -1.602195
38.260000 -2.281610
38.280000 -2.764559
38.300000 -3.080559
38.320000 -3.476028
38.340000 -3.923253
38.360000 -4.229507
38.380000 -4.340960
38.400000 -4.559076
38.420000 -4.982076
38.440000 -5.235172
38.460000 -5.347746
38.480000 -5.606752
38.500000 -5.859331
38.520000 -6.128741
38.540000 -6.290340
38.560000 -6.365342
38.580000 -6.743531
38.600000 -7.113612
38.620000 -7.435269
38.640000 -7.832111
38.660000 -8.196562
38.680000 -8.724419
38.700000 -9.110954
38.720000 -8.949915
38.740000 -8.865237
38.760000 -9.005999
38.780000 -8.965123
38.800000 -8.724755
38.820000 -8.501458
38.840000 -8.592227
38.860000 -8.786090
38.880000 -8.586724
38.900000 -8.293410
38.920000 -8.088428
38.940000 -7.733345
38.960000 -7.272228
38.980000 -6.772042
39.000000 -6.221738
39.020000 -5.859092
39.040000 -5.754165
39.060000 -5.524342
39.080000 -5.194493
39.100000 -4.936579
39.120000 -4.718350
39.140000 -4.377746
39.160000 -3.747497
39.180000 -3.125593
39.200000 -2.745346
39.220000 -2.331630
39.240000 -1.805818
39.260000 -1.566571
39.280000 -1.490392
39.300000 -1.191182
39.320000 -0.898554
39.340000 -0.608810
39.360000 -0.217822
39.380000 0.170505
39.400000 0.610743
39.420000 1.021294
39.440000 1.256760
39.460000 1.576807
39.480000 1.776985
39.500000 1.979278
39.520000 2.420258
39.540000 2.686798
39.560000 3.017739
39.580000 3.570760
39.600000 4.036862
39.620000 4.402448
39.640000 4.692696
39.660000 5.051252
39.680000 5.460501
39.700000 5.685843
39.720000 5.954889
39.740000 6.500125
39.760000 6.997328
39.780000 7.344163
39.800000 7.701375
39.820000 8.104098
39.840000 8.372725
39.860000 8.511330
39.880000 8.647191
39.900000 8.763461
39.920000 8.994264
39.940000 9.191572
39.960000 9.327698
39.980000 9.584688
40.000000 9.685260
40.020000 9.762321
40.040000 9.735280
40.060000 9.428985
40.080000 9.239659
40.100000 9.084096
40.120000 8.758938
40.140000 8.426330
40.160000 8.158361
40.180000 8.014197
40.200000 7.751185
40.220000 7.280322
40.240000 6.926933
40.260000 6.628059
40.280000 6.240950
40.300000 5.781864
40.320000 5.412497
40.340000 5.239121
40.360000 4.982048
40.380000 4.685106
40.400000 4.429923
40.420000 4.076828
40.440000 3.755675
40.460000 3.280723
40.480000 2.740991
40.500000 2.238508
40.520000 1.713186
40.540000 1.278703
40.560000 0.755874
40.580000 0.147932
40.600000 -0.339792
40.620000 -0.816060
40.640000 -1.375229
40.660000 -1.990116
40.680000 -2.545742
40.700000 -2.931801
40.720000 -3.304808
40.740000 -3.764945
40.760000 -4.095060
40.780000 -4.272455
40.800000 -4.534150
40.820000 -4.863509
40.840000 -5.169847
40.860000 -5.376200
40.880000 -5.596781
40.900000 -5.878725
40.920000 -6.155040
40.940000 -6.336369
40.960000 -6.525261
40.980000 -6.807540
41.000000 -7.152135
41.020000 -7.538586
41.040000 -7.882509
41.060000 -8.280050
41.080000 -8.816995
41.100000 -9.203054
41.120000 -9.245667
41.140000 -9.070050
41.160000 -9.186866
41.180000 -9.212437
41.200000 -8.903522
41.220000 -8.683529
41.240000 -8.686582
41.260000 -8.830481
41.280000 -8.720330
41.300000 -8.352462
41.320000 -8.145912
41.340000 -7.832433
41.360000 -7.323298
41.380000 -6.780920
41.400000 -6.220239
41.420000 -5.751000
41.440000 -5.578717
41.460000 -5.314656
41.480000 -5.023834
41.500000 -4.747071
41.520000 -4.493904
41.540000 -4.232938
41.560000 -3.646743
41.580000 -3.026758
41.600000 -2.594474
41.620000 -2.190098
41.640000 -1.701675
41.660000 -1.360035
41.680000 -1.282806
41.700000 -1.068877
41.720000 -0.815178
41.740000 -0.517354
41.760000 -0.169217
41.780000 0.155955
41.800000 0.643035
41.820000 1.054692
41.840000 1.298308
41.860000 1.581582
41.880000 1.809053
41.900000 1.989346
41.920000 2.334151
41.940000 2.622957
41.960000 2.948479
41.980000 3.437714
42.000000 3.896409
42.020000 4.328441
42.040000 4.623407
42.060000 4.957248
42.080000 5.345127
42.100000 5.610827
42.120000 5.864624
42.140000 6.288198
42.160000 6.819093
42.180000 7.210291
42.200000 7.552085
42.220000 7.952554
42.240000 8.248809
42.260000 8.432421
42.280000 8.544140
42.300000 8.666781
42.320000 8.883876
42.340000 9.052938
42.360000 9.223961
42.380000 9.475098
42.400000 9.625452
42.420000 9.696771
42.440000 9.695595
42.460000 9.513733
42.480000 9.293236
42.500000 9.069252
42.520000 8.818606
42.540000 8.511036
42.560000 8.245602
42.580000 8.043968
42.600000 7.830878
42.620000 7.485415
42.640000 7.091977
42.660000 6.735381
42.680000 6.407422
42.700000 5.972100
42.720000 5.581098
42.740000 5.350350
42.760000 5.103597
42.780000 4.854491
42.800000 4.561050
42.820000 4.260286
42.840000 3.897641
42.860000 3.421134
42.880000 2.905544
42.900000 2.338436
42.920000 1.792949
42.940000 1.285103
42.960000 0.742556
42.980000 0.183878
43.000000 -0.400216
43.020000 -0.875196
43.040000 -1.408893
43.060000 -2.022394
43.080000 -2.625953
43.100000 -3.067857
43.120000 -3.405745
43.140000 -3.866862
43.160000 -4.255385
43.180000 -4.444766
43.200000 -4.641486
43.220000 -4.949686
43.240000 -5.268837
43.260000 -5.453835
43.280000 -5.639450
43.300000 -5.926253
43.320000 -6.218251
43.340000 -6.395505
43.360000 -6.569819
43.380000 -6.829148
43.400000 -7.198486
43.420000 -7.550475
43.440000 -7.883391
43.460000 -8.311936
43.480000 -8.791985
43.500000 -9.185214
43.520000 -9.142392
43.540000 -9.039089
43.560000 -9.135558
43.580000 -9.053820
43.600000 -8.843266
43.620000 -8.610460
43.640000 -8.604494
43.660000 -8.761822
43.680000 -8.592788
43.700000 -8.319764
43.720000 -8.098987
43.740000 -7.695900
43.760000 -7.292029
43.780000 -6.720412
43.800000 -6.104235
43.820000 -5.755229
43.840000 -5.555191
43.860000 -5.370011
43.880000 -5.044517
43.900000 -4.721375
43.920000 -4.596773
43.940000 -4.230711
43.960000 -3.623119
43.980000 -3.021002
44.000000 -2.578356
44.020000 -2.198514
44.040000 -1.716267
44.060000 -1.426173
44.080000 -1.348104
44.100000 -1.157280
44.120000 -0.909183
44.140000 -0.600842
44.160000 -0.213047
44.180000 0.127361
44.200000 0.561423
44.220000 0.996437
44.240000 1.260849
44.260000 1.511537
44.280000 1.646628
44.300000 1.920408
44.320000 2.280154
44.340000 2.556272
44.360000 2.898655
44.380000 3.409092
44.400000 3.954733
44.420000 4.331017
44.440000 4.589365
44.460000 4.974668
44.480000 5.373764
44.500000 5.609370
44.520000 5.875280
44.540000 6.371406
44.560000 6.870234
44.580000 7.311550
44.600000 7.659393
44.620000 8.016647
44.640000 8.343290
44.660000 8.498587
44.680000 8.610670
44.700000 8.730637
44.720000 8.935408
44.740000 9.172415
44.760000 9.383236
44.780000 9.565531
44.800000 9.738123
44.820000 9.863635
44.840000 9.833878
44.860000 9.563543
44.880000 9.321075
44.900000 9.167458
44.920000 8.940575
44.940000 8.534113
44.960000 8.258107
44.980000 8.132833
45.000000 7.907519
45.020000 7.469087
45.040000 7.029452
45.060000 6.706884
45.080000 6.360889
45.100000 5.872424
45.120000 5.444397
45.140000 5.220595
45.160000 5.042766
45.180000 4.740069
45.200000 4.406607
45.220000 4.067460
45.240000 3.712124
45.260000 3.255068
45.280000 2.649843
45.300000 2.081194
45.320000 1.579678
45.340000 1.128573
45.360000 0.577485
45.380000 -0.018414
45.400000 -0.500186
45.420000 -0.918887
45.440000 -1.463240
45.460000 -2.056170
45.480000 -2.632073
45.500000 -2.972831
45.520000 -3.297331
45.540000 -3.778052
45.560000 -4.092414
45.580000 -4.257485
45.600000 -4.465603
45.620000 -4.764211
45.640000 -5.137625
45.660000 -5.335745
45.680000 -5.505297
45.700000 -5.843339
45.720000 -6.122748
45.740000 -6.354321
45.760000 -6.506916
45.780000 -6.737132
45.800000 -7.180128
45.820000 -7.529330
45.840000 -7.872202
45.860000 -8.290581
45.880000 -8.805163
45.900000 -9.245190
45.920000 -9.255707
45.940000 -9.129243
45.960000 -9.244714
45.980000 -9.213739
46.000000 -8.983510
46.020000 -8.742414
46.040000 -8.741853
46.060000 -8.855701
46.080000 -8.753490
46.100000 -8.432967
46.120000 -8.164061
46.140000 -7.803782
46.160000 -7.352005
46.180000 -6.785765
46.200000 -6.149634
46.220000 -5.718415
46.240000 -5.517256
46.260000 -5.294939
46.280000 -4.929227
46.300000 -4.684728
46.320000 -4.456557
46.340000 -4.095929
46.360000 -3.550596
46.380000 -2.892759
46.400000 -2.500861
46.420000 -2.083183
46.440000 -1.573236
46.460000 -1.358999
46.480000 -1.212888
46.500000 -1.056694
46.520000 -0.822838
46.540000 -0.536861
46.560000 -0.232778
46.580000 0.143212
46.600000 0.537407
46.620000 0.928983
46.640000 1.219679
46.660000 1.446898
46.680000 1.630468
46.700000 1.876591
46.720000 2.183867
46.740000 2.497010
46.760000 2.820824
46.780000 3.293942
46.800000 3.825118
46.820000 4.215993
46.840000 4.525734
46.860000 4.865162
46.880000 5.286943
46.900000 5.581532
46.920000 5.837835
46.940000 6.333106
46.960000 6.828756
46.980000 7.288136
47.000000 7.678158
47.020000 8.011396
47.040000 8.350025
47.060000 8.575059
47.080000 8.683305
47.100000 8.783499
47.120000 8.997737
47.140000 9.240513
47.160000 9.411494
47.180000 9.590191
47.200000 9.770667
47.220000 9.853539
47.240000 9.820281
47.260000 9.566904
47.280000 9.305923
47.300000 9.153118
47.320000 8.826084
47.340000 8.505239
47.360000 8.220326
47.380000 8.005963
47.400000 7.804650
47.420000 7.391047
47.440000 6.989766
47.460000 6.646768
47.480000 6.264602
47.500000 5.861627
47.520000 5.436093
47.540000 5.178697
47.560000 4.999706
47.580000 4.729581
47.600000 4.426226
47.620000 4.083662
47.640000 3.743926
47.660000 3.333529
47.680000 2.744128
47.700000 2.207127
47.720000 1.704126
47.740000 1.246678
47.760000 0.715320
47.780000 0.134138
47.800000 -0.354327
47.820000 -0.820359
47.840000 -1.390296
47.860000 -1.990410
47.880000 -2.559283
47.900000 -2.953870
47.920000 -3.339873
47.940000 -3.816239
47.960000 -4.102566
47.980000 -4.326620
48.000000 -4.507544
48.020000 -4.825140
48.040000 -5.151208
48.060000 -5.331264
48.080000 -5.572920
48.100000 -5.852903
48.120000 -6.132746
48.140000 -6.382552
48.160000 -6.507560
48.180000 -6.788244
48.200000 -7.165999
48.220000 -7.533027
48.240000 -7.942191
48.260000 -8.261300
48.280000 -8.832427
48.300000 -9.326984
48.320000 -9.278434
48.340000 -9.204945
48.360000 -9.242866
48.380000 -9.270214
48.400000 -9.092106
48.420000 -8.683207
48.440000 -8.727262
48.460000 -8.894420
48.480000 -8.701202
48.500000 -8.452054
48.520000 -8.136936
48.540000 -7.799287
48.560000 -7.369117
48.580000 -6.747802
48.600000 -6.164548
48.620000 -5.719129
48.640000 -5.454521
48.660000 -5.273038
48.680000 -4.969711
48.700000 -4.651960
48.720000 -4.425988
48.740000 -4.159182
48.760000 -3.619506
48.780000 -2.920192
48.800000 -2.518211
48.820000 -2.159207
48.840000 -1.653167
48.860000 -1.373492
48.880000 -1.241202
48.900000 -1.134623
48.920000 -0.894549
48.940000 -0.556032
48.960000 -0.279983
48.980000 0.081023
49.000000 0.525140
49.020000 0.936839
49.040000 1.236539
49.060000 1.485701
49.080000 1.689716
49.100000 1.915478
49.120000 2.256180
49.140000 2.561860
49.160000 2.916061
49.180000 3.402216
49.200000 3.937018
49.220000 4.390307
49.240000 4.691310
49.260000 5.010068
49.280000 5.458526
49.300000 5.718863
49.320000 5.948994
49.340000 6.420894
49.360000 6.917957
49.380000 7.350955
49.400000 7.720070
49.420000 8.020568
49.440000 8.380987
49.460000 8.527518
49.480000 8.580577
49.500000 8.705039
49.520000 8.864047
49.540000 9.049199
49.560000 9.213319
49.580000 9.387815
49.600000 9.549316
49.620000 9.634442
49.640000 9.598425
49.660000 9.374399
49.680000 9.153118
49.700000 8.917344
49.720000 8.702378
49.740000 8.384852
49.760000 8.081217
49.780000 7.965129
49.800000 7.764040
49.820000 7.381762
49.840000 7.003055
49.860000 6.689562
49.880000 6.359363
49.900000 5.928941
49.920000 5.504107
49.940000 5.291704
49.960000 5.138535
49.980000 4.815338
50.000000 4.533380
50.020000 4.242544
50.040000 3.873975
50.060000 3.458327
50.080000 2.861056
50.100000 2.319139
50.120000 1.817175
50.140000 1.331776
50.160000 0.776347
50.180000 0.202405
50.200000 -0.324822
50.220000 -0.817923
50.240000 -1.343805
50.260000 -1.983801
50.280000 -2.558835
50.300000 -2.964723
50.320000 -3.347365
50.340000 -3.779719
50.360000 -4.134942
50.380000 -4.334910
50.400000 -4.531867
50.420000 -4.851270
50.440000 -5.183206
50.460000 -5.400902
50.480000 -5.587749
50.500000 -5.902573
50.520000 -6.191700
50.540000 -6.386137
50.560000 -6.542555
50.580000 -6.813338
50.600000 -7.154390
50.620000 -7.547338
50.640000 -7.911412
50.660000 -8.288438
50.680000 -8.879016
50.700000 -9.271643
50.720000 -9.333174
50.740000 -9.220404
50.760000 -9.216456
50.780000 -9.242012
50.800000 -9.003940
50.820000 -8.691217
50.840000 -8.680337
50.860000 -8.784592
50.880000 -8.653898
50.900000 -8.371366
50.920000 -8.071064
50.940000 -7.730292
50.960000 -7.271752
50.980000 -6.667815
51.000000 -6.099418
51.020000 -5.637825
51.040000 -5.396239
51.060000 -5.215400
51.080000 -4.913879
51.100000 -4.663317
51.120000 -4.425568
51.140000 -4.139815
51.160000 -3.628258
51.180000 -2.995670
51.200000 -2.568525
51.220000 -2.177649
51.240000 -1.720033
51.260000 -1.451995
51.280000 -1.352977
51.300000 -1.174840
51.320000 -0.970587
51.340000 -0.666854
51.360000 -0.335549
51.380000 0.028917
51.400000 0.504919
51.420000 0.887337
51.440000 1.203477
51.460000 1.501679
51.480000 1.647188
51.500000 1.922256
51.520000 2.247428
51.540000 2.583187
51.560000 2.966683
51.580000 3.434074
51.600000 3.975948
51.620000 4.403863
51.640000 4.715536
51.660000 5.044811
51.680000 5.436037
51.700000 5.682412
51.720000 5.962283
51.740000 6.384149
51.760000 6.864702
51.780000 7.302545
51.800000 7.669616
51.820000 8.018552
51.840000 8.297849
51.860000 8.491613
51.880000 8.569024
51.900000 8.687968
51.920000 8.854384
51.940000 9.031947
51.960000 9.280955
51.980000 9.444178
52.000000 9.628645
52.020000 9.710270
52.040000 9.710858
52.060000 9.533870
52.080000 9.254643
52.100000 9.088899
52.120000 8.835564
52.140000 8.539995
52.160000 8.254144
52.180000 8.037876
52.200000 7.839491
52.220000 7.476775
52.240000 7.043133
52.260000 6.680320
52.280000 6.323766
52.300000 5.862047
52.320000 5.484516
52.340000 5.191230
52.360000 4.966756
52.380000 4.748640
52.400000 4.401804
52.420000 4.116864
52.440000 3.739403
52.460000 3.275135
52.480000 2.790675
52.500000 2.227585
52.520000 1.733043
52.540000 1.294149
52.560000 0.788277
52.580000 0.281678
52.600000 -0.230607
52.620000 -0.725682
52.640000 -1.211865
52.660000 -1.802387
52.680000 -2.378948
52.700000 -2.802424
52.720000 -3.166399
52.740000 -3.575353
52.760000 -3.947647
52.780000 -4.174642
52.800000 -4.423117
52.820000 -4.743906
52.840000 -5.087619
52.860000 -5.369703
52.880000 -5.589906
52.900000 -5.911661
52.920000 -6.200607
52.940000 -6.418191
52.960000 -6.646754
52.980000 -6.890118
53.000000 -7.240525
53.020000 -7.634201
53.040000 -8.007615
53.060000 -8.435838
53.080000 -8.942928
53.100000 -9.396119
53.120000 -9.499618
53.140000 -9.277510
53.160000 -9.314871
53.180000 -9.319002
53.200000 -9.065275
53.220000 -8.765855
53.240000 -8.661880
53.260000 -8.805149
53.280000 -8.693178
53.300000 -8.324693
53.320000 -8.090151
53.340000 -7.735600
53.360000 -7.230344
53.380000 -6.706492
53.400000 -6.069843
53.420000 -5.604735
53.440000 -5.355853
53.460000 -5.157902
53.480000 -4.920041
53.500000 -4.532442
53.520000 -4.322699
53.540000 -4.115379
53.560000 -3.556197
53.580000 -2.932501
53.600000 -2.447046
53.620000 -2.130500
53.640000 -1.694365
53.660000 -1.315406
53.680000 -1.299834
53.700000 -1.129413
53.720000 -0.905262
53.740000 -0.647936
53.760000 -0.325788
53.780000 0.031998
53.800000 0.459913
53.820000 0.877577
53.840000 1.146834
53.860000 1.441563
53.880000 1.660141
53.900000 1.787796
53.920000 2.168477
53.940000 2.532887
53.960000 2.845652
53.980000 3.309121
54.000000 3.830733
54.020000 4.340175
54.040000 4.612135
54.060000 4.921399
54.080000 5.361119
54.100000 5.656254
54.120000 5.924292
54.140000 6.304918
54.160000 6.875583
54.180000 7.347804
54.200000 7.676113
54.220000 8.054974
54.240000 8.404316
54.260000 8.548971
54.280000 8.676976
54.300000 8.798371
54.320000 8.938587
54.340000 9.160386
54.360000 9.341310
54.380000 9.560658
54.400000 9.728195
54.420000 9.753905
54.440000 9.779741
54.460000 9.604937
54.480000 9.271279
54.500000 9.058890
54.520000 8.820664
54.540000 8.504314
54.560000 8.175767
54.580000 7.984075
54.600000 7.796360
54.620000 7.442537
54.640000 6.989556
54.660000 6.641531
54.680000 6.320391
54.700000 5.864260
54.720000 5.451875
54.740000 5.178151
54.760000 4.975774
54.780000 4.725198
54.800000 4.429713
54.820000 4.128094
54.840000 3.731295
54.860000 3.344508
54.880000 2.822631
54.900000 2.248731
54.920000 1.746850
54.940000 1.279137
54.960000 0.822054
54.980000 0.247412
55.000000 -0.303789
55.020000 -0.742122
55.040000 -1.227157
55.060000 -1.848962
55.080000 -2.483007
55.100000 -2.885030
55.120000 -3.210090
55.140000 -3.656685
55.160000 -4.063133
55.180000 -4.247123
55.200000 -4.433438
55.220000 -4.726066
55.240000 -5.070283
55.260000 -5.332580
55.280000 -5.489460
55.300000 -5.808218
55.320000 -6.113772
55.340000 -6.347124
55.360000 -6.533635
55.380000 -6.757212
55.400000 -7.130640
55.420000 -7.529008
55.440000 -7.926213
55.460000 -8.278230
55.480000 -8.832455
55.500000 -9.360620
55.520000 -9.390489
55.540000 -9.252388
55.560000 -9.310306
55.580000 -9.342654
55.600000 -9.149884
55.620000 -8.819362
55.640000 -8.765799
55.660000 -8.998731
55.680000 -8.820762
55.700000 -8.478660
55.720000 -8.238993
55.740000 -7.827938
55.760000 -7.402501
55.780000 -6.784687
55.800000 -6.147380
55.820000 -5.696177
55.840000 -5.385975
55.860000 -5.216548
55.880000 -4.897943
55.900000 -4.548811
55.920000 -4.343830
55.940000 -4.058960
55.960000 -3.515195
55.980000 -2.854908
56.000000 -2.380068
56.020000 -2.062542
56.040000 -1.594297
56.060000 -1.254464
56.080000 -1.248274
56.100000 -1.084211
56.120000 -0.890390
56.140000 -0.599834
56.160000 -0.303243
56.180000 0.002283
56.200000 0.480133
56.220000 0.860339
56.240000 1.112679
56.260000 1.386361
56.280000 1.565534
56.300000 1.776257
56.320000 2.104356
56.340000 2.458935
56.360000 2.803894
56.380000 3.276494
56.400000 3.868024
56.420000 4.294860
56.440000 4.607948
56.460000 4.966000
56.480000 5.354649
56.500000 5.684428
56.520000 5.944261
56.540000 6.339618
56.560000 6.970624
56.580000 7.392755
56.600000 7.716289
56.620000 8.129738
56.640000 8.419174
56.660000 8.614059
56.680000 8.704843
56.700000 8.770392
56.720000 8.968946
56.740000 9.156955
56.760000 9.341071
56.780000 9.523045
56.800000 9.672559
56.820000 9.751202
56.840000 9.715339
56.860000 9.508006
56.880000 9.206247
56.900000 9.011572
56.920000 8.768124
56.940000 8.445094
56.960000 8.145170
56.980000 7.952246
57.000000 7.773241
57.020000 7.407893
57.040000 6.992399
57.060000 6.625049
57.080000 6.307998
57.100000 5.875280
57.120000 5.450194
57.140000 5.227625
57.160000 5.014675
57.180000 4.780175
57.200000 4.520567
57.220000 4.161646
57.240000 3.821939
57.260000 3.439535
57.280000 2.864235
57.300000 2.340439
57.320000 1.835827
57.340000 1.352907
57.360000 0.905556
57.380000 0.290626
57.400000 -0.247677
57.420000 -0.695645
57.440000 -1.263286
57.460000 -1.858387
57.480000 -2.473191
57.500000 -2.902212
57.520000 -3.235520
57.540000 -3.672691
57.560000 -4.041105
57.580000 -4.250120
57.600000 -4.433522
57.620000 -4.757490
57.640000 -5.125960
57.660000 -5.330157
57.680000 -5.524426
57.700000 -5.872816
57.720000 -6.127887
57.740000 -6.383659
57.760000 -6.552637
57.780000 -6.778974
57.800000 -7.229644
57.820000 -7.574043
57.840000 -7.937766
57.860000 -8.374475
57.880000 -8.895358
57.900000 -9.411522
57.920000 -9.514769
57.940000 -9.341043
57.960000 -9.395447
57.980000 -9.448197
58.000000 -9.216876
58.020000 -8.898257
58.040000 -8.810274
58.060000 -8.949551
58.080000 -8.800065
58.100000 -8.443834
58.120000 -8.141179
58.140000 -7.784975
58.160000 -7.320176
58.180000 -6.705484
58.200000 -6.082194
58.220000 -5.591586
58.240000 -5.306702
58.260000 -5.134670
58.280000 -4.797161
58.300000 -4.487869
58.320000 -4.278448
58.340000 -3.995118
58.360000 -3.530795
58.380000 -2.855945
58.400000 -2.440633
58.420000 -2.124829
58.440000 -1.622570
58.460000 -1.323290
58.480000 -1.259365
58.500000 -1.127929
58.520000 -0.899408
58.540000 -0.597902
58.560000 -0.331824
58.580000 0.002058
58.600000 0.450614
58.620000 0.836113
58.640000 1.135421
58.660000 1.400743
58.680000 1.591497
58.700000 1.848654
58.720000 2.126663
58.740000 2.464326
58.760000 2.834575
58.780000 3.241681
58.800000 3.817612
58.820000 4.245275
58.840000 4.554315
58.860000 4.893266
58.880000 5.326740
58.900000 5.604693
58.920000 5.851741
58.940000 6.280244
58.960000 6.830044
58.980000 7.254374
59.000000 7.616221
59.020000 8.017487
59.040000 8.361732
59.060000 8.533287
59.080000 8.651014
59.100000 8.792224
59.120000 8.990357
59.140000 9.165175
59.160000 9.320360
59.180000 9.566960
59.200000 9.714443
59.220000 9.745209
59.240000 9.777094
59.260000 9.611715
59.280000 9.307351
59.300000 9.129551
59.320000 8.882335
59.340000 8.558689
59.360000 8.243600
59.380000 8.045774
59.400000 7.871880
59.420000 7.502317
59.440000 7.069333
59.460000 6.727357
59.480000 6.428175
59.500000 5.974858
59.520000 5.515926
59.540000 5.288021
59.560000 5.093598
59.580000 4.791042
59.600000 4.465687
59.620000 4.164237
59.640000 3.810946
59.660000 3.379544
59.680000 2.815545
59.700000 2.269764
59.720000 1.748152
59.740000 1.270890
59.760000 0.759711
59.780000 0.197728
59.800000 -0.340198
59.820000 -0.812265
59.840000 -1.294415
59.860000 -1.896210
59.880000 -2.498509
59.900000 -2.878014
59.920000 -3.205329
59.940000 -3.623161
59.960000 -3.998409
59.980000 -4.207493
60.000000 -4.345987
60.020000 -4.658654
60.040000 -5.054515
60.060000 -5.242734
60.080000 -5.465836
60.100000 -5.829139
60.120000 -6.118043
60.140000 -6.414130
60.160000 -6.585321
60.180000 -6.879084
60.200000 -7.268405
60.220000 -7.645390
60.240000 -8.053616
60.260000 -8.470216
60.280000 -9.025464
60.300000 -9.489073
60.320000 -9.612415
60.340000 -9.454135
60.360000 -9.444332
60.380000 -9.469790
60.400000 -9.222897
60.420000 -8.877952
60.440000 -8.726478
60.460000 -8.854497
60.480000 -8.691511
60.500000 -8.357503
60.520000 -8.085278
60.540000 -7.710309
60.560000 -7.284257
60.580000 -6.652285
60.600000 -6.034415
60.620000 -5.567976
60.640000 -5.245913
60.660000 -5.086205
60.680000 -4.850094
60.700000 -4.493610
60.720000 -4.275816
60.740000 -4.074868
60.760000 -3.541619
60.780000 -2.929084
60.800000 -2.420034
60.820000 -2.055092
60.840000 -1.651081
60.860000 -1.250697
60.880000 -1.172964
60.900000 -1.057100
60.920000 -0.843297
60.940000 -0.566604
60.960000 -0.273640
60.980000 0.056350
61.000000 0.500578
61.020000 0.904001
61.040000 1.200831
61.060000 1.456028
61.080000 1.657634
61.100000 1.811756
61.120000 2.130192
61.140000 2.455812
61.160000 2.806345
61.180000 3.216797
61.200000 3.743310
61.220000 4.285562
61.240000 4.529851
61.260000 4.856886
61.280000 5.319543
61.300000 5.594275
61.320000 5.888626
61.340000 6.250276
61.360000 6.802471
61.380000 7.311592
61.400000 7.659561
61.420000 8.017459
61.440000 8.383241
61.460000 8.592367
61.480000 8.651196
61.500000 8.777884
61.520000 8.913941
61.540000 9.104751
61.560000 9.302408
61.580000 9.500178
61.600000 9.631179
61.620000 9.730407
61.640000 9.735994
61.660000 9.541488
61.680000 9.277202
61.700000 9.008926
61.720000 8.823983
61.740000 8.564501
61.760000 8.194210
61.780000 8.029796
61.800000 7.860846
61.820000 7.547940
61.840000 7.163674
61.860000 6.700499
61.880000 6.426257
61.900000 6.030942
61.920000 5.536441
61.940000 5.252117
61.960000 5.041282
61.980000 4.793002
62.000000 4.512291
62.020000 4.158426
62.040000 3.794842
62.060000 3.390481
62.080000 2.855692
62.100000 2.304002
62.120000 1.726405
62.140000 1.287610
62.160000 0.818637
62.180000 0.258292
62.200000 -0.240396
62.220000 -0.761713
62.240000 -1.234789
62.260000 -1.766833
62.280000 -2.427021
62.300000 -2.861952
62.320000 -3.206449
62.340000 -3.600868
62.360000 -3.967406
62.380000 -4.243076
62.400000 -4.440201
62.420000 -4.675038
62.440000 -5.059612
62.460000 -5.385163
62.480000 -5.558622
62.500000 -5.869175
62.520000 -6.191224
62.540000 -6.465648
62.560000 -6.639360
62.580000 -6.840042
62.600000 -7.226157
62.620000 -7.653148
62.640000 -8.000039
62.660000 -8.391433
62.680000 -8.985162
62.700000 -9.481287
62.720000 -9.550604
62.740000 -9.423719
62.760000 -9.421017
62.780000 -9.447063
62.800000 -9.204329
62.820000 -8.825580
62.840000 -8.764721
62.860000 -8.867534
62.880000 -8.702910
62.900000 -8.403560
62.920000 -8.133141
62.940000 -7.744716
62.960000 -7.282199
62.980000 -6.709615
63.000000 -6.061147
63.020000 -5.570301
63.040000 -5.247383
63.060000 -5.123188
63.080000 -4.852166
63.100000 -4.478333
63.120000 -4.313933
63.140000 -4.044116
63.160000 -3.574373
63.180000 -2.884441
63.200000 -2.427456
63.220000 -2.134281
63.240000 -1.602321
63.260000 -1.303573
63.280000 -1.226709
63.300000 -1.110971
63.320000 -0.910849
63.340000 -0.614090
63.360000 -0.331054
63.380000 -0.006554
63.400000 0.447954
63.420000 0.811761
63.440000 1.116040
63.460000 1.431914
63.480000 1.563070
63.500000 1.798172
63.520000 2.132251
63.540000 2.424389
63.560000 2.830416
63.580000 3.207555
63.600000 3.819782
63.620000 4.313415
63.640000 4.542916
63.660000 4.917128
63.680000 5.349874
63.700000 5.630992
63.720000 5.906816
63.740000 6.292833
63.760000 6.845013
63.780000 7.322836
63.800000 7.656691
63.820000 8.042539
63.840000 8.365639
63.860000 8.569878
63.880000 8.646140
63.900000 8.760142
63.920000 8.909460
63.940000 9.084740
63.960000 9.305349
63.980000 9.456655
64.000000 9.625284
64.020000 9.740686
64.040000 9.705845
64.060000 9.552886
64.080000 9.263423
64.100000 9.037030
64.120000 8.870418
64.140000 8.527126
64.160000 8.228756
64.180000 8.069286
64.200000 7.876501
64.220000 7.547842
64.240000 7.100995
64.260000 6.739890
64.280000 6.455286
64.300000 5.989016
64.320000 5.550038
64.340000 5.278807
64.360000 5.094537
64.380000 4.836987
64.400000 4.476036
64.420000 4.206723
64.440000 3.850576
64.460000 3.391965
64.480000 2.883489
64.500000 2.300333
64.520000 1.754398
64.540000 1.319425
64.560000 0.777299
64.580000 0.235186
64.600000 -0.302725
64.620000 -0.776725
64.640000 -1.240824
64.660000 -1.869813
64.680000 -2.498971
64.700000 -2.874261
64.720000 -3.211616
64.740000 -3.646505
64.760000 -4.047113
64.780000 -4.234226
64.800000 -4.369988
64.820000 -4.680513
64.840000 -5.052933
64.860000 -5.295835
64.880000 -5.485119
64.900000 -5.835693
64.920000 -6.162377
64.940000 -6.446030
64.960000 -6.637484
64.980000 -6.864996
65.000000 -7.313664
65.020000 -7.705716
65.040000 -8.092629
65.060000 -8.514761
65.080000 -9.036246
65.100000 -9.623939
65.120000 -9.716166
65.140000 -9.496887
65.160000 -9.552018
65.180000 -9.556163
65.200000 -9.345328
65.220000 -8.921293
65.240000 -8.744654
65.260000 -8.930647
65.280000 -8.733984
65.300000 -8.292892
65.320000 -8.037652
65.340000 -7.695704
65.360000 -7.192031
65.380000 -6.554024
65.400000 -5.932134
65.420000 -5.464085
65.440000 -5.112671
65.460000 -4.965160
65.480000 -4.749578
65.500000 -4.350328
65.520000 -4.193518
65.540000 -3.983089
65.560000 -3.513024
65.580000 -2.865481
65.600000 -2.350563
65.620000 -2.149069
65.640000 -1.668935
65.660000 -1.269349
65.680000 -1.256046
65.700000 -1.187387
65.720000 -0.947748
65.740000 -0.621959
65.760000 -0.403381
65.780000 -0.076864
65.800000 0.411195
65.820000 0.809184
65.840000 1.079968
65.860000 1.350555
65.880000 1.567271
65.900000 1.754692
65.920000 2.047936
65.940000 2.411226
65.960000 2.772709
65.980000 3.150673
66.000000 3.767886
66.020000 4.249812
66.040000 4.527036
66.060000 4.856970
66.080000 5.286397
66.100000 5.651927
66.120000 5.840972
66.140000 6.229538
66.160000 6.849691
66.180000 7.311130
66.200000 7.640055
66.220000 8.036854
66.240000 8.410590
66.260000 8.628286
66.280000 8.684678
66.300000 8.803048
66.320000 9.013561
66.340000 9.183310
66.360000 9.368126
66.380000 9.593076
66.400000 9.748121
66.420000 9.825616
66.440000 9.846621
66.460000 9.632538
66.480000 9.340721
66.500000 9.124173
66.520000 8.916307
66.540000 8.597199
66.560000 8.235170
66.580000 8.051389
66.600000 7.947512
66.620000 7.573427
66.640000 7.087174
66.660000 6.752955
66.680000 6.472748
66.700000 5.990094
66.720000 5.499444
66.740000 5.226196
66.760000 5.080393
66.780000 4.766326
66.800000 4.435174
66.820000 4.136552
66.840000 3.773613
66.860000 3.334734
66.880000 2.745402
66.900000 2.210655
66.920000 1.650367
66.940000 1.155110
66.960000 0.699482
66.980000 0.134950
67.000000 -0.390218
67.020000 -0.835343
67.040000 -1.325237
67.060000 -1.862994
67.080000 -2.502542
67.100000 -2.912840
67.120000 -3.174171
67.140000 -3.594496
67.160000 -3.974057
67.180000 -4.162024
67.200000 -4.328931
67.220000 -4.594252
67.240000 -4.985983
67.260000 -5.243140
67.280000 -5.428671
67.300000 -5.800754
67.320000 -6.134301
67.340000 -6.419367
67.360000 -6.598750
67.380000 -6.881646
67.400000 -7.289466
67.420000 -7.666115
67.440000 -8.085152
67.460000 -8.509286
67.480000 -9.059142
67.500000 -9.589659
67.520000 -9.649846
67.540000 -9.515469
67.560000 -9.551514
67.580000 -9.521519
67.600000 -9.347891
67.620000 -8.917554
67.640000 -8.778864
67.660000 -8.942088
67.680000 -8.718818
67.700000 -8.343472
67.720000 -8.052664
67.740000 -7.701025
67.760000 -7.234853
67.780000 -6.574650
67.800000 -5.944919
67.820000 -5.460459
67.840000 -5.148030
67.860000 -4.978645
67.880000 -4.684000
67.900000 -4.395419
67.920000 -4.193686
67.940000 -3.921321
67.960000 -3.498419
67.980000 -2.828204
68.000000 -2.387574
68.020000 -2.124423
68.040000 -1.613608
68.060000 -1.338344
68.080000 -1.271954
68.100000 -1.151077
68.120000 -0.976231
68.140000 -0.641928
68.160000 -0.406364
68.180000 -0.066180
68.200000 0.417903
68.220000 0.778881
68.240000 1.099096
68.260000 1.357850
68.280000 1.562804
68.300000 1.780248
68.320000 2.072652
68.340000 2.409923
68.360000 2.770468
68.380000 3.192179
68.400000 3.749513
68.420000 4.199764
68.440000 4.511619
68.460000 4.837519
68.480000 5.226294
68.500000 5.563915
68.520000 5.785631
68.540000 6.208448
68.560000 6.786647
68.580000 7.214954
68.600000 7.618699
68.620000 7.991665
68.640000 8.336274
68.660000 8.598669
68.680000 8.645216
68.700000 8.805373
68.720000 8.999767
68.740000 9.160904
68.760000 9.382549
68.780000 9.555351
68.800000 9.745363
68.820000 9.815267
68.840000 9.776114
68.860000 9.618226
68.880000 9.355271
68.900000 9.119510
68.920000 8.897837
68.940000 8.604592
68.960000 8.303450
68.980000 8.127554
69.000000 7.955536
69.020000 7.618307
69.040000 7.203122
69.060000 6.847590
69.080000 6.524210
69.100000 6.065796
69.120000 5.605604
69.140000 5.317148
69.160000 5.120849
69.180000 4.823656
69.200000 4.438059
69.220000 4.166394
69.240000 3.785544
69.260000 3.314485
69.280000 2.758495
69.300000 2.173168
69.320000 1.650661
69.340000 1.177627
69.360000 0.650092
69.380000 0.132514
69.400000 -0.380738
69.420000 -0.828159
69.440000 -1.328961
69.460000 -1.882318
69.480000 -2.466217
69.500000 -2.872412
69.520000 -3.191297
69.540000 -3.606721
69.560000 -3.953500
69.580000 -4.171631
69.600000 -4.336338
69.620000 -4.624136
69.640000 -5.004593
69.660000 -5.256528
69.680000 -5.474910
69.700000 -5.815220
69.720000 -6.127859
69.740000 -6.439392
69.760000 -6.632456
69.780000 -6.854718
69.800000 -7.238270
69.820000 -7.667375
69.840000 -8.028074
69.860000 -8.432099
69.880000 -8.946443
69.900000 -9.488639
69.920000 -9.709178
69.940000 -9.487855
69.960000 -9.451110
69.980000 -9.540311
70.000000 -9.323105
70.020000 -8.920830
70.040000 -8.732891
70.060000 -8.858726
70.080000 -8.785670
70.100000 -8.382989
70.120000 -8.078934
70.140000 -7.759363
70.160000 -7.263532
70.180000 -6.632568
70.200000 -6.026321
70.220000 -5.502301
70.240000 -5.161375
70.260000 -4.981796
70.280000 -4.732354
70.300000 -4.409870
70.320000 -4.178324
70.340000 -3.993116
70.360000 -3.587018
70.380000 -2.925905
70.400000 -2.430956
70.420000 -2.150217
70.440000 -1.706506
70.460000 -1.309595
70.480000 -1.229033
70.500000 -1.166018
70.520000 -0.941404
70.540000 -0.650428
70.560000 -0.370921
70.580000 -0.075786
70.600000 0.404991
70.620000 0.819561
70.640000 1.088748
70.660000 1.372932
70.680000 1.593471
70.700000 1.761315
70.720000 2.032211
70.740000 2.376833
70.760000 2.758243
70.780000 3.136782
70.800000 3.664807
70.820000 4.226286
70.840000 4.510120
70.860000 4.821975
70.880000 5.244723
70.900000 5.559686
70.920000 5.855508
70.940000 6.159535
70.960000 6.766959
70.980000 7.307265
71.000000 7.596770
71.020000 8.019868
71.040000 8.408447
71.060000 8.602716
71.080000 8.721605
71.100000 8.819810
71.120000 8.995748
71.140000 9.188617
71.160000 9.335498
71.180000 9.574942
71.200000 9.749242
71.220000 9.776590
71.240000 9.856325
71.260000 9.653038
71.280000 9.376360
71.300000 9.159322
71.320000 8.927566
71.340000 8.668728
71.360000 8.307525
71.380000 8.115581
71.400000 7.995782
71.420000 7.649675
71.440000 7.226605
71.460000 6.830772
71.480000 6.535511
71.500000 6.098382
71.520000 5.552797
71.540000 5.305427
71.560000 5.092184
71.580000 4.753121
71.600000 4.472577
71.620000 4.101040
71.640000 3.726646
71.660000 3.308239
71.680000 2.699401
71.700000 2.152233
71.720000 1.555606
71.740000 1.051219
71.760000 0.588940
71.780000 0.048452
71.800000 -0.466830
71.820000 -0.924474
71.840000 -1.367933
71.860000 -1.879308
71.880000 -2.493944
71.900000 -2.903262
71.920000 -3.170306
71.940000 -3.575465
71.960000 -3.929191
71.980000 -4.159840
72.000000 -4.288237
72.020000 -4.591858
72.040000 -4.957528
72.060000 -5.179677
72.080000 -5.446287
72.100000 -5.775324
72.120000 -6.086857
72.140000 -6.434687
72.160000 -6.555326
72.180000 -6.859521
72.200000 -7.294115
72.220000 -7.608099
72.240000 -8.016787
72.260000 -8.469250
72.280000 -8.990413
72.300000 -9.511843
72.320000 -9.624542
72.340000 -9.487421
72.360000 -9.511562
72.380000 -9.486594
72.400000 -9.265803
72.420000 -8.889799
72.440000 -8.766695
72.460000 -8.844932
72.480000 -8.680897
72.500000 -8.370736
72.520000 -8.066177
72.540000 -7.655864
72.560000 -7.244431
72.580000 -6.631266
72.600000 -5.946123
72.620000 -5.484782
72.640000 -5.171037
72.660000 -4.971923
72.680000 -4.691464
72.700000 -4.426548
72.720000 -4.238595
72.740000 -3.981115
72.760000 -3.499511
72.780000 -2.927082
72.800000 -2.513240
72.820000 -2.110321
72.840000 -1.665168
72.860000 -1.393517
72.880000 -1.332784
72.900000 -1.201153
72.920000 -0.975797
72.940000 -0.748032
72.960000 -0.464352
72.980000 -0.108988
73.000000 0.348474
73.020000 0.724044
73.040000 1.061721
73.060000 1.318403
73.080000 1.514926
73.100000 1.795778
73.120000 2.049281
73.140000 2.393413
73.160000 2.747390
73.180000 3.231291
73.200000 3.782771
73.220000 4.194120
73.240000 4.565517
73.260000 4.910000
73.280000 5.324990
73.300000 5.585369
73.320000 5.841630
73.340000 6.298336
73.360000 6.810383
73.380000 7.240987
73.400000 7.639901
73.420000 8.053924
73.440000 8.372501
73.460000 8.595490
73.480000 8.662300
73.500000 8.799127
73.520000 9.013547
73.540000 9.138317
73.560000 9.334112
73.580000 9.548615
73.600000 9.750390
73.620000 9.808924
73.640000 9.776156
73.660000 9.629317
73.680000 9.386961
73.700000 9.190549
73.720000 8.902094
73.740000 8.625780
73.760000 8.403770
73.780000 8.187418
73.800000 7.991147
73.820000 7.652055
73.840000 7.259905
73.860000 6.926037
73.880000 6.509381
73.900000 6.033434
73.920000 5.634997
73.940000 5.311617
73.960000 5.077901
73.980000 4.766662
74.000000 4.425554
74.020000 4.163593
74.040000 3.733367
74.060000 3.253416
74.080000 2.698099
74.100000 2.141717
74.120000 1.623200
74.140000 1.094475
74.160000 0.593547
74.180000 0.097898
74.200000 -0.389434
74.220000 -0.825358
74.240000 -1.378029
74.260000 -1.914988
74.280000 -2.390585
74.300000 -2.868534
74.320000 -3.203424
74.340000 -3.588895
74.360000 -3.945084
74.380000 -4.100718
74.400000 -4.363309
74.420000 -4.685260
74.440000 -4.947053
74.460000 -5.267632
74.480000 -5.494501
74.500000 -5.858028
74.520000 -6.196476
74.540000 -6.397382
74.560000 -6.658993
74.580000 -6.915240
74.600000 -7.252861
74.620000 -7.673719
74.640000 -8.008315
74.660000 -8.471588
74.680000 -9.048415
74.700000 -9.495109
74.720000 -9.615243
74.740000 -9.434782
74.760000 -9.469650
74.780000 -9.502124
74.800000 -9.215195
74.820000 -8.865307
74.840000 -8.744976
74.860000 -8.871469
74.880000 -8.740873
74.900000 -8.367880
74.920000 -8.108341
74.940000 -7.763158
74.960000 -7.279818
74.980000 -6.661359
75.000000 -6.032972
75.020000 -5.520939
75.040000 -5.182660
75.060000 -5.018148
75.080000 -4.760808
75.100000 -4.433998
75.120000 -4.217982
75.140000 -3.968638
75.160000 -3.511764
75.180000 -2.882537
75.200000 -2.401003
75.220000 -2.092565
75.240000 -1.629222
75.260000 -1.322198
75.280000 -1.263468
75.300000 -1.132032
75.320000 -0.961079
75.340000 -0.681502
75.360000 -0.412259
75.380000 -0.078657
75.400000 0.400692
75.420000 0.770479
75.440000 1.053319
75.460000 1.368479
75.480000 1.551181
75.500000 1.743363
75.520000 2.032126
75.540000 2.396074
75.560000 2.788910
75.580000 3.166231
75.600000 3.758966
75.620000 4.226706
75.640000 4.526266
75.660000 4.890466
75.680000 5.249134
75.700000 5.584192
75.720000 5.846223
75.740000 6.213434
75.760000 6.796758
75.780000 7.203486
75.800000 7.608855
75.820000 8.023677
75.840000 8.348891
75.860000 8.546759
75.880000 8.640105
75.900000 8.799631
75.920000 8.968764
75.940000 9.100116
75.960000 9.320949
75.980000 9.577546
76.000000 9.722747
76.020000 9.761144
76.040000 9.808406
76.060000 9.674520
76.080000 9.376178
76.100000 9.139199
76.120000 8.955895
76.140000 8.662874
76.160000 8.355725
76.180000 8.148167
76.200000 7.999185
76.220000 7.685299
76.240000 7.220598
76.260000 6.861089
76.280000 6.527851
76.300000 6.080430
76.320000 5.610505
76.340000 5.325914
76.360000 5.118762
76.380000 4.803505
76.400000 4.497335
76.420000 4.180439
76.440000 3.762578
76.460000 3.303520
76.480000 2.745528
76.500000 2.161504
76.520000 1.581904
76.540000 1.085247
76.560000 0.603041
76.580000 0.080925
76.600000 -0.476773
76.620000 -0.938044
76.640000 -1.357822
76.660000 -1.922942
76.680000 -2.533419
76.700000 -2.955102
76.720000 -3.214697
76.740000 -3.623147
76.760000 -3.995048
76.780000 -4.210672
76.800000 -4.359192
76.820000 -4.644146
76.840000 -5.024114
76.860000 -5.277603
76.880000 -5.488423
76.900000 -5.848520
76.920000 -6.138712
76.940000 -6.420978
76.960000 -6.651053
76.980000 -6.893801
77.000000 -7.269161
77.020000 -7.642827
77.040000 -8.032639
77.060000 -8.493420
77.080000 -8.979435
77.100000 -9.453757
77.120000 -9.594448
77.140000 -9.418860
77.160000 -9.410682
77.180000 -9.407657
77.200000 -9.216470
77.220000 -8.843504
77.240000 -8.680561
77.260000 -8.830747
77.280000 -8.702210
77.300000 -8.366339
77.320000 -8.093988
77.340000 -7.696390
77.360000 -7.277956
77.380000 -6.656696
77.400000 -6.001549
77.420000 -5.513083
77.440000 -5.142344
77.460000 -4.973828
77.480000 -4.701532
77.500000 -4.374652
77.520000 -4.152698
77.540000 -3.926992
77.560000 -3.483505
77.580000 -2.840639
77.600000 -2.415525
77.620000 -2.097788
77.640000 -1.658965
77.660000 -1.345387
77.680000 -1.270890
77.700000 -1.189838
77.720000 -0.999476
77.740000 -0.714550
77.760000 -0.451230
77.780000 -0.110851
77.800000 0.331208
77.820000 0.744447
77.840000 1.065152
77.860000 1.329774
77.880000 1.546182
77.900000 1.767197
77.920000 2.063480
77.940000 2.422750
77.960000 2.762920
77.980000 3.191297
78.000000 3.746727
78.020000 4.192594
78.040000 4.508944
78.060000 4.817074
78.080000 5.223116
78.100000 5.536371
78.120000 5.789328
78.140000 6.200172
78.160000 6.726489
78.180000 7.190364
78.200000 7.614694
78.220000 7.951041
78.240000 8.309499
78.260000 8.561560
78.280000 8.656699
78.300000 8.804014
78.320000 8.957421
78.340000 9.161240
78.360000 9.378376
78.380000 9.566400
78.400000 9.744915
78.420000 9.796713
78.440000 9.849604
78.460000 9.632636
78.480000 9.361684
78.500000 9.178268
78.520000 8.892068
78.540000 8.650061
78.560000 8.334804
78.580000 8.113494
78.600000 7.964555
78.620000 7.623096
78.640000 7.227431
78.660000 6.854228
78.680000 6.472314
78.700000 6.088286
78.720000 5.635011
78.740000 5.287363
78.760000 5.101818
78.780000 4.800984
78.800000 4.493176
78.820000 4.181783
78.840000 3.746811
78.860000 3.351650
78.880000 2.775215
78.900000 2.194355
78.920000 1.639920
78.940000 1.129806
78.960000 0.662583
78.980000 0.091008
79.000000 -0.404879
79.020000 -0.835063
79.040000 -1.357892
79.060000 -1.866173
79.080000 -2.442579
79.100000 -2.889315
79.120000 -3.184071
79.140000 -3.596359
79.160000 -3.954299
79.180000 -4.183926
79.200000 -4.381877
79.220000 -4.671817
79.240000 -5.030037
79.260000 -5.340912
79.280000 -5.543485
79.300000 -5.863391
79.320000 -6.187765
79.340000 -6.483419
79.360000 -6.680908
79.380000 -6.891911
79.400000 -7.292883
79.420000 -7.676029
79.440000 -8.074075
79.460000 -8.454294
79.480000 -8.995917
79.500000 -9.500248
79.520000 -9.600666
79.540000 -9.472941
79.560000 -9.446517
79.580000 -9.484620
79.600000 -9.295883
79.620000 -8.899489
79.640000 -8.745928
79.660000 -8.860854
79.680000 -8.781567
79.700000 -8.432463
79.720000 -8.091607
79.740000 -7.731160
79.760000 -7.296132
79.780000 -6.676721
79.800000 -5.993007
79.820000 -5.479321
79.840000 -5.161585
79.860000 -4.982230
79.880000 -4.654019
79.900000 -4.401482
79.920000 -4.137869
79.940000 -3.914809
79.960000 -3.525600
79.980000 -2.840737
80.000000 -2.451261
80.020000 -2.116623
80.040000 -1.697768
80.060000 -1.398138
80.080000 -1.265750
80.100000 -1.198856
80.120000 -1.025915
80.140000 -0.698950
80.160000 -0.428111
80.180000 -0.080925
80.200000 0.360741
80.220000 0.757008
80.240000 1.118519
80.260000 1.392775
80.280000 1.583375
80.300000 1.842885
80.320000 2.107101
80.340000 2.467225
80.360000 2.812856
80.380000 3.210636
80.400000 3.750872
80.420000 4.201780
80.440000 4.516898
80.460000 4.790230
80.480000 5.210625
80.500000 5.518096
80.520000 5.781780
80.540000 6.146764
80.560000 6.704896
80.580000 7.200629
80.600000 7.576185
80.620000 7.937094
80.640000 8.302736
80.660000 8.573225
80.680000 8.667159
80.700000 8.742246
80.720000 8.959410
80.740000 9.176042
80.760000 9.324071
80.780000 9.485152
80.800000 9.681017
80.820000 9.716446
80.840000 9.728461
80.860000 9.538841
80.880000 9.269080
80.900000 9.096377
80.920000 8.834738
80.940000 8.574961
80.960000 8.295440
80.980000 8.108957
81.000000 7.944614
81.020000 7.641875
81.040000 7.230988
81.060000 6.843417
81.080000 6.561599
81.100000 6.116880
81.120000 5.635235
81.140000 5.349678
81.160000 5.145537
81.180000 4.867668
81.200000 4.529949
81.220000 4.186348
81.240000 3.847747
81.260000 3.423011
81.280000 2.819536
81.300000 2.291959
81.320000 1.726083
81.340000 1.224888
81.360000 0.768701
81.380000 0.187141
81.400000 -0.321335
81.420000 -0.789888
81.440000 -1.275399
81.460000 -1.804782
81.480000 -2.403468
81.500000 -2.867651
81.520000 -3.163823
81.540000 -3.528288
81.560000 -3.964045
81.580000 -4.237489
81.600000 -4.389425
81.620000 -4.692248
81.640000 -5.087297
81.660000 -5.385919
81.680000 -5.621539
81.700000 -5.910303
81.720000 -6.228501
81.740000 -6.575127
81.760000 -6.714516
81.780000 -6.955640
81.800000 -7.368809
81.820000 -7.721596
81.840000 -8.135130
81.860000 -8.527350
81.880000 -9.010970
81.900000 -9.586943
81.920000 -9.660418
81.940000 -9.461486
81.960000 -9.467858
81.980000 -9.433312
82.000000 -9.294076
82.020000 -8.900091
82.040000 -8.679917
82.060000 -8.834024
82.080000 -8.733409
82.100000 -8.397455
82.120000 -8.087742
82.140000 -7.667431
82.160000 -7.245356
82.180000 -6.663236
82.200000 -5.963670
82.220000 -5.444859
82.240000 -5.111341
82.260000 -4.928653
82.280000 -4.668694
82.300000 -4.349165
82.320000 -4.130139
82.340000 -3.901324
82.360000 -3.484528
82.380000 -2.871698
82.400000 -2.397992
82.420000 -2.112786
82.440000 -1.686341
82.460000 -1.367569
82.480000 -1.316877
82.500000 -1.169869
82.520000 -1.036641
82.540000 -0.760495
82.560000 -0.444831
82.580000 -0.135287
82.600000 0.322035
82.620000 0.728525
82.640000 1.067659
82.660000 1.351535
82.680000 1.565548
82.700000 1.770740
82.720000 2.092565
82.740000 2.413606
82.760000 2.742139
82.780000 3.198859
82.800000 3.724433
82.820000 4.182063
82.840000 4.483920
82.860000 4.826736
82.880000 5.236713
82.900000 5.529229
82.920000 5.805614
82.940000 6.198156
82.960000 6.781102
82.980000 7.223664
83.000000 7.642393
83.020000 8.084171
83.040000 8.395508
83.060000 8.669862
83.080000 8.783681
83.100000 8.899503
83.120000 9.077304
83.140000 9.244476
83.160000 9.441392
83.180000 9.633490
83.200000 9.731625
83.220000 9.806613
83.240000 9.807075
83.260000 9.588273
83.280000 9.319016
83.300000 9.090859
83.320000 8.856527
83.340000 8.581011
83.360000 8.255082
83.380000 8.101059
83.400000 7.916733
83.420000 7.601979
83.440000 7.203010
83.460000 6.821908
83.480000 6.498682
83.500000 6.044301
83.520000 5.637951
83.540000 5.317008
83.560000 5.060018
83.580000 4.813167
83.600000 4.492532
83.620000 4.130097
83.640000 3.776526
83.660000 3.335798
83.680000 2.779934
83.700000 2.228426
83.720000 1.633857
83.740000 1.186421
83.760000 0.712449
83.780000 0.115500
83.800000 -0.374996
83.820000 -0.830540
83.840000 -1.331174
83.860000 -1.888004
83.880000 -2.430970
83.900000 -2.867609
83.920000 -3.197067
83.940000 -3.581319
83.960000 -3.957631
83.980000 -4.147237
84.000000 -4.389285
84.020000 -4.718476
84.040000 -5.039966
84.060000 -5.349076
84.080000 -5.596333
84.100000 -5.941754
84.120000 -6.245585
84.140000 -6.491751
84.160000 -6.723268
84.180000 -7.007438
84.200000 -7.335747
84.220000 -7.742125
84.240000 -8.160490
84.260000 -8.556687
84.280000 -9.090383
84.300000 -9.569900
84.320000 -9.626362
84.340000 -9.458532
84.360000 -9.462355
84.380000 -9.426422
84.400000 -9.191375
84.420000 -8.855799
84.440000 -8.654360
84.460000 -8.798007
84.480000 -8.677844
84.500000 -8.293172
84.520000 -8.029628
84.540000 -7.603296
84.560000 -7.141129
84.580000 -6.590166
84.600000 -5.908650
84.620000 -5.377503
84.640000 -5.129139
84.660000 -4.953621
84.680000 -4.687725
84.700000 -4.372481
84.720000 -4.164825
84.740000 -3.974645
84.760000 -3.492117
84.780000 -2.884133
84.800000 -2.437398
84.820000 -2.139812
84.840000 -1.725635
84.860000 -1.398278
84.880000 -1.364712
84.900000 -1.212481
84.920000 -1.074730
84.940000 -0.764444
84.960000 -0.431402
84.980000 -0.151306
85.000000 0.348320
85.020000 0.731060
85.040000 1.049468
85.060000 1.373730
85.080000 1.530806
85.100000 1.753852
85.120000 2.117743
85.140000 2.430046
85.160000 2.777834
85.180000 3.205034
85.200000 3.744444
85.220000 4.199624
85.240000 4.485278
85.260000 4.795677
85.280000 5.177087
85.300000 5.487723
85.320000 5.780646
85.340000 6.137353
85.360000 6.714670
85.380000 7.202757
85.400000 7.600495
85.420000 8.009953
85.440000 8.347197
85.460000 8.626018
85.480000 8.754849
85.500000 8.868360
85.520000 9.072935
85.540000 9.272287
85.560000 9.473025
85.580000 9.674814
85.600000 9.764603
85.620000 9.852432
85.640000 9.851830
85.660000 9.619808
85.680000 9.349712
85.700000 9.129593
85.720000 8.899727
85.740000 8.625429
85.760000 8.311404
85.780000 8.120398
85.800000 7.986918
85.820000 7.648261
85.840000 7.203094
85.860000 6.834973
85.880000 6.542569
85.900000 6.094503
85.920000 5.616316
85.940000 5.319487
85.960000 5.123482
85.980000 4.825756
86.000000 4.481847
86.020000 4.134074
86.040000 3.804953
86.060000 3.368818
86.080000 2.769306
86.100000 2.218357
86.120000 1.679690
86.140000 1.192597
86.160000 0.705406
86.180000 0.147245
86.200000 -0.357170
86.220000 -0.820499
86.240000 -1.325181
86.260000 -1.866439
86.280000 -2.438868
86.300000 -2.895924
86.320000 -3.173485
86.340000 -3.560398
86.360000 -3.949663
86.380000 -4.181783
86.400000 -4.367720
86.420000 -4.640590
86.440000 -5.051574
86.460000 -5.326614
86.480000 -5.552335
86.500000 -5.877409
86.520000 -6.171746
86.540000 -6.504088
86.560000 -6.645928
86.580000 -6.899599
86.600000 -7.327541
86.620000 -7.700493
86.640000 -8.105779
86.660000 -8.558969
86.680000 -9.051272
86.700000 -9.576342
86.720000 -9.645099
86.740000 -9.443660
86.760000 -9.482744
86.780000 -9.412867
86.800000 -9.236452
86.820000 -8.894238
86.840000 -8.698499
86.860000 -8.834514
86.880000 -8.668714
86.900000 -8.407495
86.920000 -8.070588
86.940000 -7.602666
86.960000 -7.252021
86.980000 -6.644317
87.000000 -5.955086
87.020000 -5.444467
87.040000 -5.146237
87.060000 -5.022223
87.080000 -4.658738
87.100000 -4.329645
87.120000 -4.213403
87.140000 -3.908564
87.160000 -3.417227
87.180000 -2.833973
87.200000 -2.426013
87.220000 -2.106344
87.240000 -1.625819
87.260000 -1.370453
87.280000 -1.362275
87.300000 -1.166396
87.320000 -0.989968
87.340000 -0.765228
87.360000 -0.468483
87.380000 -0.096987
87.400000 0.338811
87.420000 0.672428
87.440000 1.034247
87.460000 1.344617
87.480000 1.514100
87.500000 1.754398
87.520000 2.085185
87.540000 2.455504
87.560000 2.801443
87.580000 3.180234
87.600000 3.790179
87.620000 4.180747
87.640000 4.466724
87.660000 4.830251
87.680000 5.182996
87.700000 5.515996
87.720000 5.777257
87.740000 6.198338
87.760000 6.741459
87.780000 7.180044
87.800000 7.635027
87.820000 8.037036
87.840000 8.365681
87.860000 8.622685
87.880000 8.788247
87.900000 8.926432
87.920000 9.087639
87.940000 9.291023
87.960000 9.550604
87.980000 9.714961
88.000000 9.777080
88.020000 9.892776
88.040000 9.864979
88.060000 9.665754
88.080000 9.334588
88.100000 9.098883
88.120000 8.925003
88.140000 8.566251
88.160000 8.267223
88.180000 8.078178
88.200000 7.911454
88.220000 7.586758
88.240000 7.180828
88.260000 6.795330
88.280000 6.469555
88.300000 6.081340
88.320000 5.623164
88.340000 5.334932
88.360000 5.085266
88.380000 4.797987
88.400000 4.524320
88.420000 4.151046
88.440000 3.757271
88.460000 3.337912
88.480000 2.823317
88.500000 2.251223
88.520000 1.678598
88.540000 1.191714
88.560000 0.748746
88.580000 0.200360
88.600000 -0.381676
88.620000 -0.831534
88.640000 -1.313586
88.660000 -1.836892
88.680000 -2.430564
88.700000 -2.865467
88.720000 -3.149497
88.740000 -3.523093
88.760000 -3.888035
88.780000 -4.142406
88.800000 -4.344824
88.820000 -4.627202
88.840000 -5.019885
88.860000 -5.320719
88.880000 -5.551116
88.900000 -5.908174
88.920000 -6.185007
88.940000 -6.505012
88.960000 -6.734177
88.980000 -6.969419
89.000000 -7.370840
89.020000 -7.776797
89.040000 -8.179898
89.060000 -8.611454
89.080000 -9.132631
89.100000 -9.645883
89.120000 -9.740363
89.140000 -9.557914
89.160000 -9.539793
89.180000 -9.534024
89.200000 -9.333566
89.220000 -8.921713
89.240000 -8.746895
89.260000 -8.846361
89.280000 -8.650902
89.300000 -8.296784
89.320000 -7.999367
89.340000 -7.595608
89.360000 -7.158619
89.380000 -6.527165
89.400000 -5.890614
89.420000 -5.345225
89.440000 -4.985899
89.460000 -4.834270
89.480000 -4.563585
89.500000 -4.247053
89.520000 -4.013267
89.540000 -3.840577
89.560000 -3.446845
89.580000 -2.825613
89.600000 -2.427245
89.620000 -2.162400
89.640000 -1.740212
89.660000 -1.409901
89.680000 -1.340360
89.700000 -1.276883
89.720000 -1.074254
89.740000 -0.774960
89.760000 -0.531246
89.780000 -0.209840
89.800000 0.249148
89.820000 0.638091
89.840000 0.983610
89.860000 1.263132
89.880000 1.527893
89.900000 1.745604
89.920000 2.042769
89.940000 2.412528
89.960000 2.746186
89.980000 3.140941
90.000000 3.680099
90.020000 4.153959
90.040000 4.456361
90.060000 4.740265
90.080000 5.197517
90.100000 5.509891
90.120000 5.750468
90.140000 6.138838
90.160000 6.705554
90.180000 7.205698
90.200000 7.567797
90.220000 7.970772
90.240000 8.408881
90.260000 8.658253
90.280000 8.779887
90.300000 8.956749
90.320000 9.146173
90.340000 9.370703
90.360000 9.528198
90.380000 9.719652
90.400000 9.887287
90.420000 9.892496
90.440000 9.902396
90.460000 9.722733
90.480000 9.381737
90.500000 9.187076
90.520000 8.939763
90.540000 8.621424
90.560000 8.315283
90.580000 8.076091
90.600000 7.946336
90.620000 7.637380
90.640000 7.169822
90.660000 6.822664
90.680000 6.530694
90.700000 6.104697
90.720000 5.602831
90.740000 5.296787
90.760000 5.125148
90.780000 4.799304
90.800000 4.473893
90.820000 4.126736
90.840000 3.783710
90.860000 3.394220
90.880000 2.808053
90.900000 2.257427
90.920000 1.699953
90.940000 1.213392
90.960000 0.733874
90.980000 0.164946
91.000000 -0.414808
91.020000 -0.850060
91.040000 -1.302607
91.060000 -1.869743
91.080000 -2.458151
91.100000 -2.896274
91.120000 -3.156835
91.140000 -3.533679
91.160000 -3.979757
91.180000 -4.206233
91.200000 -4.310600
91.220000 -4.609866
91.240000 -5.051938
91.260000 -5.307080
91.280000 -5.503687
91.300000 -5.842064
91.320000 -6.161817
91.340000 -6.533341
91.360000 -6.656752
91.380000 -6.945152
91.400000 -7.394520
91.420000 -7.755190
91.440000 -8.170992
91.460000 -8.595798
91.480000 -9.146229
91.500000 -9.671873
91.520000 -9.766410
91.540000 -9.593132
91.560000 -9.578246
91.580000 -9.581061
91.600000 -9.346659
91.620000 -8.915579
91.640000 -8.726002
91.660000 -8.778402
91.680000 -8.606413
91.700000 -8.270570
91.720000 -7.962314
91.740000 -7.583453
91.760000 -7.130948
91.780000 -6.541743
91.800000 -5.922472
91.820000 -5.341332
91.840000 -5.019045
91.860000 -4.881013
91.880000 -4.589785
91.900000 -4.251226
91.920000 -4.053680
91.940000 -3.883358
91.960000 -3.485368
91.980000 -2.823989
92.000000 -2.480682
92.020000 -2.221802
92.040000 -1.759271
92.060000 -1.474036
92.080000 -1.410209
92.100000 -1.333275
92.120000 -1.114472
92.140000 -0.850761
92.160000 -0.627561
92.180000 -0.221169
92.200000 0.222906
92.220000 0.595129
92.240000 0.995401
92.260000 1.314048
92.280000 1.553631
92.300000 1.740632
92.320000 2.079066
92.340000 2.534469
92.360000 2.803348
92.380000 3.173471
92.400000 3.828576
92.420000 4.275186
92.440000 4.541852
92.460000 4.849772
92.480000 5.285977
92.500000 5.634703
92.520000 5.821213
92.540000 6.177305
92.560000 6.803900
92.580000 7.237024
92.600000 7.605270
92.620000 8.038478
92.640000 8.411318
92.660000 8.669988
92.680000 8.793666
92.700000 8.966930
92.720000 9.117942
92.740000 9.281879
92.760000 9.531237
92.780000 9.729231
92.800000 9.783480
92.820000 9.855807
92.840000 9.884514
92.860000 9.709388
92.880000 9.330751
92.900000 9.059478
92.920000 8.939119
92.940000 8.551814
92.960000 8.152732
92.980000 8.006019
93.000000 7.859949
93.020000 7.549971
93.040000 7.098152
93.060000 6.743139
93.080000 6.516130
93.100000 6.053361
93.120000 5.576505
93.140000 5.329989
93.160000 5.103555
93.180000 4.793310
93.200000 4.492504
93.220000 4.205491
93.240000 3.842692
93.260000 3.384011
93.280000 2.908723
93.300000 2.392503
93.320000 1.779100
93.340000 1.299876
93.360000 0.841994
93.380000 0.309825
93.400000 -0.273836
93.420000 -0.799158
93.440000 -1.237365
93.460000 -1.800273
93.480000 -2.418129
93.500000 -2.869836
93.520000 -3.186718
93.540000 -3.529941
93.560000 -3.966397
93.580000 -4.201864
93.600000 -4.332249
93.620000 -4.658248
93.640000 -5.012785
93.660000 -5.301296
93.680000 -5.534620
93.700000 -5.864624
93.720000 -6.189138
93.740000 -6.503457
93.760000 -6.684199
93.780000 -6.972444
93.800000 -7.358699
93.820000 -7.739997
93.840000 -8.149805
93.860000 -8.573603
93.880000 -9.139521
93.900000 -9.662519
93.920000 -9.806865
93.940000 -9.599588
93.960000 -9.566750
93.980000 -9.597655
94.000000 -9.333020
94.020000 -8.886886
94.040000 -8.681317
94.060000 -8.767536
94.080000 -8.638859
94.100000 -8.228602
94.120000 -7.934461
94.140000 -7.633053
94.160000 -7.137516
94.180000 -6.494439
94.200000 -5.894451
94.220000 -5.357646
94.240000 -4.985688
94.260000 -4.808504
94.280000 -4.590247
94.300000 -4.295379
94.320000 -4.092064
94.340000 -3.885010
94.360000 -3.523877
94.380000 -2.951896
94.400000 -2.442747
94.420000 -2.212056
94.440000 -1.802289
94.460000 -1.419731
94.480000 -1.402143
94.500000 -1.325881
94.520000 -1.119219
94.540000 -0.862425
94.560000 -0.583968
94.580000 -0.274340
94.600000 0.202083
94.620000 0.644113
94.640000 0.952887
94.660000 1.248008
94.680000 1.549991
94.700000 1.754230
94.720000 2.020952
94.740000 2.433799
94.760000 2.812534
94.780000 3.169452
94.800000 3.730623
94.820000 4.241200
94.840000 4.554441
94.860000 4.872975
94.880000 5.252145
94.900000 5.600380
94.920000 5.878081
94.940000 6.187681
94.960000 6.759019
94.980000 7.265927
95.000000 7.620996
95.020000 8.015163
95.040000 8.432925
95.060000 8.696076
95.080000 8.781133
95.100000 8.957155
95.120000 9.155093
95.140000 9.343018
95.160000 9.538855
95.180000 9.735518
95.200000 9.900464
95.220000 9.971685
95.240000 9.898013
95.260000 9.755011
95.280000 9.466528
95.300000 9.128682
95.320000 8.912050
95.340000 8.578812
95.360000 8.254536
95.380000 8.031351
95.400000 7.813990
95.420000 7.547506
95.440000 7.113024
95.460000 6.728491
95.480000 6.433314
95.500000 6.003677
95.520000 5.543387
95.540000 5.242286
95.560000 5.061419
95.580000 4.794010
95.600000 4.428999
95.620000 4.166338
95.640000 3.839709
95.660000 3.384572
95.680000 2.850749
95.700000 2.313860
95.720000 1.775753
95.740000 1.298056
95.760000 0.749250
95.780000 0.261079
95.800000 -0.260939
95.820000 -0.798136
95.840000 -1.288758
95.860000 -1.799853
95.880000 -2.400597
95.900000 -2.870802
95.920000 -3.166175
95.940000 -3.525810
95.960000 -3.881313
95.980000 -4.123879
96.000000 -4.266924
96.020000 -4.517514
96.040000 -4.925418
96.060000 -5.229865
96.080000 -5.403395
96.100000 -5.783418
96.120000 -6.118925
96.140000 -6.432250
96.160000 -6.625973
96.180000 -6.874379
96.200000 -7.318733
96.220000 -7.729760
96.240000 -8.095402
96.260000 -8.589301
96.280000 -9.140319
96.300000 -9.717944
96.320000 -9.893728
96.340000 -9.704515
96.360000 -9.699418
96.380000 -9.651610
96.400000 -9.441476
96.420000 -9.059114
96.440000 -8.776414
96.460000 -8.837594
96.480000 -8.681457
96.500000 -8.286828
96.520000 -8.027696
96.540000 -7.616935
96.560000 -7.138888
96.580000 -6.584663
96.600000 -5.903847
96.620000 -5.381060
96.640000 -5.004411
96.660000 -4.812705
96.680000 -4.638741
96.700000 -4.293950
96.720000 -4.070555
96.740000 -3.900078
96.760000 -3.540289
96.780000 -2.938088
96.800000 -2.468065
96.820000 -2.211524
96.840000 -1.786647
96.860000 -1.459935
96.880000 -1.375635
96.900000 -1.285313
96.920000 -1.129638
96.940000 -0.819561
96.960000 -0.580986
96.980000 -0.259426
97.000000 0.224068
97.020000 0.617002
97.040000 0.943561
97.060000 1.290634
97.080000 1.562019
97.100000 1.762380
97.120000 2.063508
97.140000 2.475907
97.160000 2.857135
97.180000 3.213857
97.200000 3.789479
97.220000 4.314507
97.240000 4.623043
97.260000 4.903349
97.280000 5.287965
97.300000 5.668409
97.320000 5.867635
97.340000 6.215478
97.360000 6.757730
97.380000 7.214674
97.400000 7.618405
97.420000 7.965577
97.440000 8.372291
97.460000 8.630443
97.480000 8.700726
97.500000 8.902766
97.520000 9.102342
97.540000 9.242922
97.560000 9.476722
97.580000 9.713981
97.600000 9.849716
97.620000 9.893434
97.640000 9.899120
97.660000 9.757644
97.680000 9.439165
97.700000 9.127912
97.720000 8.899517
97.740000 8.633789
97.760000 8.250195
97.780000 7.960130
97.800000 7.870620
97.820000 7.570108
97.840000 7.102423
97.860000 6.749118
97.880000 6.442249
97.900000 6.076789
97.920000 5.611807
97.940000 5.268613
97.960000 5.137485
97.980000 4.869138
98.000000 4.501662
98.020000 4.263003
98.040000 3.872029
98.060000 3.408153
98.080000 2.918203
98.100000 2.378318
98.120000 1.799965
98.140000 1.265694
98.160000 0.811635
98.180000 0.282098
98.200000 -0.288833
98.220000 -0.817096
98.240000 -1.339926
98.260000 -1.803339
98.280000 -2.434009
98.300000 -2.971962
98.320000 -3.207877
98.340000 -3.569304
98.360000 -3.951288
98.380000 -4.191908
98.400000 -4.380589
98.420000 -4.577420
98.440000 -4.950232
98.460000 -5.304489
98.480000 -5.496797
98.500000 -5.799102
98.520000 -6.141078
98.540000 -6.474554
98.560000 -6.679816
98.580000 -6.917047
98.600000 -7.308525
98.620000 -7.731371
98.640000 -8.145758
98.660000 -8.579176
98.680000 -9.096475
98.700000 -9.715353
98.720000 -9.864139
98.740000 -9.689783
98.760000 -9.689181
98.780000 -9.609712
98.800000 -9.429685
98.820000 -8.971803
98.840000 -8.710976
98.860000 -8.808579
98.880000 -8.579386
98.900000 -8.214781
98.920000 -7.973825
98.940000 -7.570332
98.960000 -7.112548
98.980000 -6.572326
99.000000 -5.929739
99.020000 -5.388159
99.040000 -4.979653
99.060000 -4.842476
99.080000 -4.668386
99.100000 -4.287355
99.120000 -4.050838
99.140000 -3.930605
99.160000 -3.566909
99.180000 -2.910446
99.200000 -2.452788
99.220000 -2.248072
99.240000 -1.786718
99.260000 -1.391697
99.280000 -1.356548
99.300000 -1.282806
99.320000 -1.101967
99.340000 -0.804185
99.360000 -0.581952
99.380000 -0.295485
99.400000 0.195907
99.420000 0.602495
99.440000 0.922066
99.460000 1.239620
99.480000 1.534503
99.500000 1.732132
99.520000 2.032351
99.540000 2.464662
99.560000 2.782959
99.580000 3.193622
99.600000 3.770406
99.620000 4.291570
99.640000 4.611421
99.660000 4.884472
99.680000 5.349216
99.700000 5.666616
99.720000 5.834363
99.740000 6.201223
99.760000 6.752535
99.780000 7.188012
99.800000 7.558219
99.820000 7.948507
99.840000 8.365723
99.860000 8.627908
99.880000 8.710794
99.900000 8.914249
99.920000 9.126932
99.940000 9.264375
99.960000 9.505723
99.980000 9.737563
100.000000 9.921637
100.020000 9.931383
100.040000 9.969487
100.060000 9.845669
100.080000 9.490039
100.100000 9.232083
100.120000 8.983285
100.140000 8.664317
100.160000 8.292359
100.180000 8.019966
100.200000 7.877762
100.220000 7.544916
100.240000 7.115530
100.260000 6.748306
100.280000 6.473182
100.300000 6.017765
100.320000 5.535055
100.340000 5.297529
100.360000 5.069191
100.380000 4.774700
100.400000 4.431225
100.420000 4.181461
100.440000 3.849511
100.460000 3.356243
100.480000 2.821286
100.500000 2.339612
100.520000 1.738252
100.540000 1.204079
100.560000 0.736703
100.580000 0.191916
100.600000 -0.327217
100.620000 -0.852091
100.640000 -1.334773
100.660000 -1.826277
100.680000 -2.463052
100.700000 -2.917531
100.720000 -3.206841
100.740000 -3.592844
100.760000 -3.937144
100.780000 -4.175160
100.800000 -4.293222
100.820000 -4.566624
100.840000 -4.932728
100.860000 -5.183206
100.880000 -5.403479
100.900000 -5.783810
100.920000 -6.076243
100.940000 -6.387720
100.960000 -6.615176
100.980000 -6.869701
101.000000 -7.272368
101.020000 -7.630322
101.040000 -8.055702
101.060000 -8.532363
101.080000 -9.033025
101.100000 -9.617400
101.120000 -9.924088
101.140000 -9.768580
101.160000 -9.677334
101.180000 -9.700888
101.200000 -9.524908
101.220000 -9.093814
101.240000 -8.824879
101.260000 -8.851066
101.280000 -8.732877
101.300000 -8.343486
101.320000 -8.029866
101.340000 -7.711262
101.360000 -7.233859
101.380000 -6.648364
101.400000 -6.047900
101.420000 -5.450334
101.440000 -5.035582
101.460000 -4.833178
101.480000 -4.652016
101.500000 -4.332698
101.520000 -4.002736
101.540000 -3.882251
101.560000 -3.551506
101.580000 -2.900867
101.600000 -2.394184
101.620000 -2.114172
101.640000 -1.729374
101.660000 -1.318725
101.680000 -1.199990
101.700000 -1.177333
101.720000 -1.005540
101.740000 -0.724282
101.760000 -0.529915
101.780000 -0.196159
101.800000 0.231630
101.820000 0.627393
101.840000 0.971666
101.860000 1.255556
101.880000 1.570842
101.900000 1.744063
101.920000 1.981014
101.940000 2.436390
101.960000 2.807507
101.980000 3.161680
102.000000 3.701286
102.020000 4.291654
102.040000 4.628561
102.060000 4.874306
102.080000 5.286705
102.100000 5.653075
102.120000 5.880055
102.140000 6.131570
102.160000 6.672562
102.180000 7.182369
102.200000 7.521488
102.220000 7.911608
102.240000 8.333277
102.260000 8.586024
102.280000 8.722711
102.300000 8.863249
102.320000 9.067978
102.340000 9.260244
102.360000 9.449878
102.380000 9.733040
102.400000 9.907578
102.420000 9.928219
102.440000 9.989707
102.460000 9.863817
102.480000 9.536614
102.500000 9.205911
102.520000 8.958794
102.540000 8.711914
102.560000 8.275667
102.580000 7.984117
102.600000 7.876529
102.620000 7.586128
102.640000 7.165326
102.660000 6.738154
102.680000 6.444391
102.700000 6.117287
102.720000 5.584388
102.740000 5.246823
102.760000 5.099396
102.780000 4.817578
102.800000 4.499912
102.820000 4.219522
102.840000 3.848657
102.860000 3.416989
102.880000 2.894048
102.900000 2.362634
102.920000 1.780276
102.940000 1.199584
102.960000 0.746785
102.980000 0.263179
103.000000 -0.345463
103.020000 -0.893653
103.040000 -1.315602
103.060000 -1.815536
103.080000 -2.470950
103.100000 -3.005080
103.120000 -3.262854
103.140000 -3.570298
103.160000 -4.008828
103.180000 -4.282327
103.200000 -4.317392
103.220000 -4.539499
103.240000 -4.903671
103.260000 -5.215750
103.280000 -5.399642
103.300000 -5.706512
103.320000 -6.080654
103.340000 -6.379023
103.360000 -6.583277
103.380000 -6.863806
103.400000 -7.222810
103.420000 -7.632283
103.440000 -8.039010
103.460000 -8.497019
103.480000 -9.034916
103.500000 -9.576440
103.520000 -9.911401
103.540000 -9.791280
103.560000 -9.706419
103.580000 -9.699726
103.600000 -9.557423
103.620000 -9.141397
103.640000 -8.795248
103.660000 -8.822443
103.680000 -8.728802
103.700000 -8.330785
103.720000 -7.967985
103.740000 -7.634971
103.760000 -7.215543
103.780000 -6.612193
103.800000 -5.943729
103.820000 -5.427271
103.840000 -5.023526
103.860000 -4.778285
103.880000 -4.632608
103.900000 -4.341478
103.920000 -4.058148
103.940000 -3.916700
103.960000 -3.591611
103.980000 -3.016927
104.000000 -2.463752
104.020000 -2.185743
104.040000 -1.808045
104.060000 -1.391739
104.080000 -1.272556
104.100000 -1.231246
104.120000 -1.119905
104.140000 -0.815094
104.160000 -0.561465
104.180000 -0.309852
104.200000 0.136155
104.220000 0.596179
104.240000 0.919825
104.260000 1.196476
104.280000 1.505908
104.300000 1.719837
104.320000 1.985495
104.340000 2.378766
104.360000 2.785872
104.380000 3.197669
104.400000 3.738017
104.420000 4.306077
104.440000 4.711209
104.460000 4.975270
104.480000 5.342452
104.500000 5.751169
104.520000 5.955576
104.540000 6.230728
104.560000 6.738728
104.580000 7.234041
104.600000 7.619064
104.620000 7.962678
104.640000 8.326192
104.660000 8.639587
104.680000 8.739571
104.700000 8.830523
104.720000 9.061774
104.740000 9.210448
104.760000 9.420303
104.780000 9.670165
104.800000 9.858118
104.820000 9.954629
104.840000 9.969641
104.860000 9.851382
104.880000 9.571427
104.900000 9.236368
104.920000 8.981661
104.940000 8.690489
104.960000 8.328026
104.980000 8.041517
105.000000 7.826131
105.020000 7.600985
105.040000 7.189944
105.060000 6.741417
105.080000 6.438678
105.100000 6.047942
105.120000 5.587735
105.140000 5.277519
105.160000 5.010236
105.180000 4.803099
105.200000 4.513159
105.220000 4.150878
105.240000 3.832763
105.260000 3.392750
105.280000 2.843426
105.300000 2.333227
105.320000 1.701101
105.340000 1.190034
105.360000 0.713303
105.380000 0.151530
105.400000 -0.354243
105.420000 -0.865842
105.440000 -1.377665
105.460000 -1.883887
105.480000 -2.457703
105.500000 -2.983291
105.520000 -3.282417
105.540000 -3.599957
105.560000 -3.948319
105.580000 -4.150276
105.600000 -4.294300
105.620000 -4.478150
105.640000 -4.783452
105.660000 -5.091652
105.680000 -5.313269
105.700000 -5.638749
105.720000 -5.928199
105.740000 -6.321638
105.760000 -6.556852
105.780000 -6.759201
105.800000 -7.204998
105.820000 -7.587948
105.840000 -8.015359
105.860000 -8.476854
105.880000 -8.976522
105.900000 -9.641416
105.920000 -9.999944
105.940000 -9.785062
105.960000 -9.805045
105.980000 -9.820785
106.000000 -9.565559
106.020000 -9.220811
106.040000 -8.874703
106.060000 -8.924401
106.080000 -8.793428
106.100000 -8.329594
106.120000 -8.070966
106.140000 -7.703854
106.160000 -7.238130
106.180000 -6.653027
106.200000 -6.024920
106.220000 -5.452981
106.240000 -5.020249
106.260000 -4.854113
106.280000 -4.674114
106.300000 -4.352232
106.320000 -4.070302
106.340000 -3.958472
106.360000 -3.624855
106.380000 -2.996566
106.400000 -2.446500
106.420000 -2.206216
106.440000 -1.815270
106.460000 -1.337335
106.480000 -1.282008
106.500000 -1.236875
106.520000 -1.063444
106.540000 -0.800180
106.560000 -0.525014
106.580000 -0.258698
106.600000 0.201046
106.620000 0.635599
106.640000 0.966092
106.660000 1.264896
106.680000 1.547442
106.700000 1.767155
106.720000 2.021624
106.740000 2.436124
106.760000 2.819508
106.780000 3.196268
106.800000 3.779158
106.820000 4.337683
106.840000 4.683706
106.860000 4.980535
106.880000 5.351863
106.900000 5.730668
106.920000 5.920959
106.940000 6.181814
106.960000 6.770670
106.980000 7.219099
107.000000 7.576731
107.020000 7.963168
107.040000 8.348877
107.060000 8.631619
107.080000 8.705067
107.100000 8.805065
107.120000 9.044774
107.140000 9.214383
107.160000 9.384650
107.180000 9.656819
107.200000 9.878815
107.220000 9.964921
107.240000 9.980451
107.260000 9.857278
107.280000 9.552144
107.300000 9.255063
107.320000 8.995370
107.340000 8.660634
107.360000 8.283845
107.380000 8.014799
107.400000 7.841745
107.420000 7.569086
107.440000 7.105294
107.460000 6.727595
107.480000 6.433875
107.500000 6.013606
107.520000 5.533444
107.540000 5.238449
107.560000 5.055453
107.580000 4.791490
107.600000 4.474580
107.620000 4.205393
107.640000 3.869410
107.660000 3.434228
107.680000 2.895742
107.700000 2.339977
107.720000 1.780598
107.740000 1.241356
107.760000 0.739560
107.780000 0.217080
107.800000 -0.343937
107.820000 -0.838311
107.840000 -1.327393
107.860000 -1.855138
107.880000 -2.459299
107.900000 -2.978348
107.920000 -3.269968
107.940000 -3.590295
107.960000 -3.972447
107.980000 -4.183156
108.000000 -4.276334
108.020000 -4.499142
108.040000 -4.822087
108.060000 -5.131253
108.080000 -5.344609
108.100000 -5.645387
108.120000 -6.008466
108.140000 -6.334311
108.160000 -6.546336
108.180000 -6.793705
108.200000 -7.177257
108.220000 -7.576899
108.240000 -8.026197
108.260000 -8.465189
108.280000 -9.013547
108.300000 -9.640575
108.320000 -9.953915
108.340000 -9.861044
108.360000 -9.786603
108.380000 -9.812243
108.400000 -9.658276
108.420000 -9.195100
108.440000 -8.878470
108.460000 -8.923477
108.480000 -8.787560
108.500000 -8.388268
108.520000 -8.029208
108.540000 -7.682345
108.560000 -7.235441
108.580000 -6.628535
108.600000 -5.985487
108.620000 -5.444243
108.640000 -5.007576
108.660000 -4.813265
108.680000 -4.660264
108.700000 -4.341030
108.720000 -4.071703
108.740000 -3.948977
108.760000 -3.638117
108.780000 -3.013496
108.800000 -2.491241
108.820000 -2.225079
108.840000 -1.816797
108.860000 -1.366729
108.880000 -1.240922
108.900000 -1.223082
108.920000 -1.014810
108.940000 -0.695813
108.960000 -0.511179
108.980000 -0.202069
109.000000 0.251150
109.020000 0.676363
109.040000 0.990654
109.060000 1.268943
109.080000 1.567439
109.100000 1.761679
109.120000 2.013642
109.140000 2.422204
109.160000 2.808305
109.180000 3.187894
109.200000 3.738031
109.220000 4.310894
109.240000 4.670571
109.260000 4.919313
109.280000 5.372588
109.300000 5.738005
109.320000 5.914434
109.340000 6.228417
109.360000 6.772140
109.380000 7.254234
109.400000 7.608953
109.420000 7.925569
109.440000 8.370806
109.460000 8.628118
109.480000 8.665269
109.500000 8.830943
109.520000 8.993480
109.540000 9.175790
109.560000 9.387227
109.580000 9.593860
109.600000 9.822577
109.620000 9.888813
109.640000 9.924648
109.660000 9.820981
109.680000 9.506885
109.700000 9.212843
109.720000 8.971187
109.740000 8.678040
109.760000 8.261496
109.780000 8.008875
109.800000 7.870788
109.820000 7.557827
109.840000 7.127139
109.860000 6.736095
109.880000 6.474120
109.900000 6.082264
109.920000 5.568859
109.940000 5.290836
109.960000 5.141644
109.980000 4.861325
110.000000 4.554469
110.020000 4.265411
110.040000 3.932033
110.060000 3.508473
110.080000 2.908751
110.100000 2.404518
110.120000 1.816545
110.140000 1.237169
110.160000 0.752023
110.180000 0.168643
110.200000 -0.342172
110.220000 -0.908244
110.240000 -1.402577
110.260000 -1.898268
110.280000 -2.551861
110.300000 -3.018062
110.320000 -3.341147
110.340000 -3.667370
110.360000 -4.014639
110.380000 -4.264221
110.400000 -4.351392
110.420000 -4.515245
110.440000 -4.908460
110.460000 -5.164329
110.480000 -5.335100
110.500000 -5.672694
110.520000 -5.989086
110.540000 -6.339562
110.560000 -6.510431
110.580000 -6.749160
110.600000 -7.172678
110.620000 -7.558191
110.640000 -7.970492
110.660000 -8.415673
110.680000 -8.974715
110.700000 -9.571049
110.720000 -9.914873
110.740000 -9.834508
110.760000 -9.746133
110.780000 -9.791364
110.800000 -9.629261
110.820000 -9.198923
110.840000 -8.924751
110.860000 -8.863711
110.880000 -8.760576
110.900000 -8.416093
110.920000 -8.000963
110.940000 -7.688884
110.960000 -7.224925
110.980000 -6.638450
111.000000 -6.041038
111.020000 -5.415704
111.040000 -5.021579
111.060000 -4.824678
111.080000 -4.587657
111.100000 -4.340217
111.120000 -4.075554
111.140000 -3.908115
111.160000 -3.649137
111.180000 -3.007643
111.200000 -2.522846
111.220000 -2.229574
111.240000 -1.772574
111.260000 -1.401625
111.280000 -1.218811
111.300000 -1.155362
111.320000 -1.013970
111.340000 -0.722378
111.360000 -0.515296
111.380000 -0.181190
111.400000 0.200710
111.420000 0.615154
111.440000 0.978835
111.460000 1.230406
111.480000 1.523160
111.500000 1.723786
111.520000 1.964140
111.540000 2.379522
111.560000 2.741817
111.580000 3.120104
111.600000 3.703400
111.620000 4.246969
111.640000 4.650028
111.660000 4.968464
111.680000 5.352381
111.700000 5.722042
111.720000 5.986271
111.740000 6.242981
111.760000 6.726377
111.780000 7.232403
111.800000 7.591015
111.820000 7.976219
111.840000 8.320842
111.860000 8.592255
111.880000 8.727192
111.900000 8.811772
111.920000 8.989587
111.940000 9.157473
111.960000 9.353773
111.980000 9.581467
112.000000 9.786014
112.020000 9.890830
112.040000 9.927925
112.060000 9.825490
112.080000 9.557395
112.100000 9.249700
112.120000 8.980107
112.140000 8.704604
112.160000 8.288228
112.180000 8.026071
112.200000 7.854894
112.220000 7.550097
112.240000 7.188866
112.260000 6.732678
112.280000 6.456826
112.300000 6.082264
112.320000 5.583436
112.340000 5.265098
112.360000 5.078699
112.380000 4.824762
112.400000 4.519754
112.420000 4.229885
112.440000 3.895176
112.460000 3.491081
112.480000 2.943368
112.500000 2.397068
112.520000 1.790330
112.540000 1.233823
112.560000 0.736241
112.580000 0.163335
112.600000 -0.358584
112.620000 -0.923256
112.640000 -1.396920
112.660000 -1.886281
112.680000 -2.542339
112.700000 -3.020778
112.720000 -3.357937
112.740000 -3.669414
112.760000 -4.024105
112.780000 -4.305699
112.800000 -4.390531
112.820000 -4.523843
112.840000 -4.870987
112.860000 -5.154023
112.880000 -5.341528
112.900000 -5.660077
112.920000 -5.953881
112.940000 -6.308432
112.960000 -6.551923
112.980000 -6.774296
113.000000 -7.157401
113.020000 -7.578006
113.040000 -7.988822
113.060000 -8.449505
113.080000 -8.945686
113.100000 -9.564243
113.120000 -9.951310
113.140000 -9.887175
113.160000 -9.777864
113.180000 -9.805955
113.200000 -9.683902
113.220000 -9.263647
113.240000 -8.907345
113.260000 -8.876244
113.280000 -8.771653
113.300000 -8.396628
113.320000 -8.042427
113.340000 -7.695984
113.360000 -7.223664
113.380000 -6.642189
113.400000 -5.984913
113.420000 -5.438235
113.440000 -4.955847
113.460000 -4.705593
113.480000 -4.612821
113.500000 -4.319688
113.520000 -4.012525
113.540000 -3.892992
113.560000 -3.654739
113.580000 -3.082813
113.600000 -2.493747
113.620000 -2.213876
113.640000 -1.871228
113.660000 -1.394147
113.680000 -1.206250
113.700000 -1.191238
113.720000 -1.049804
113.740000 -0.720739
113.760000 -0.464702
113.780000 -0.221771
113.800000 0.241138
113.820000 0.691528
113.840000 1.005764
113.860000 1.276547
113.880000 1.571374
113.900000 1.762212
113.920000 1.960093
113.940000 2.327584
113.960000 2.771700
113.980000 3.103804
114.000000 3.622405
114.020000 4.256421
114.040000 4.650980
114.060000 4.919102
114.080000 5.304993
114.100000 5.716314
114.120000 5.973444
114.140000 6.152939
114.160000 6.689730
114.180000 7.236604
114.200000 7.581829
114.220000 7.923581
114.240000 8.312090
114.260000 8.656769
114.280000 8.713693
114.300000 8.807599
114.320000 9.029469
114.340000 9.177120
114.360000 9.344670
114.380000 9.610006
114.400000 9.832296
114.420000 9.929213
114.440000 9.952514
114.460000 9.882918
114.480000 9.646653
114.500000 9.245989
114.520000 8.989979
114.540000 8.757649
114.560000 8.335378
114.580000 8.043898
114.600000 7.848845
114.620000 7.646398
114.640000 7.232417
114.660000 6.749132
114.680000 6.474932
114.700000 6.106602
114.720000 5.613431
114.740000 5.233562
114.760000 5.059738
114.780000 4.826414
114.800000 4.518228
114.820000 4.236816
114.840000 3.890653
114.860000 3.489317
114.880000 2.936324
114.900000 2.347902
114.920000 1.785863
114.940000 1.204388
114.960000 0.669193
114.980000 0.180966
115.000000 -0.388159
115.020000 -0.920539
115.040000 -1.387650
115.060000 -1.896980
115.080000 -2.473064
115.100000 -3.038450
115.120000 -3.388044
115.140000 -3.632025
115.160000 -4.051188
115.180000 -4.298431
115.200000 -4.381373
115.220000 -4.538995
115.240000 -4.822339
115.260000 -5.159484
115.280000 -5.337425
115.300000 -5.594807
115.320000 -5.959090
115.340000 -6.318585
115.360000 -6.530428
115.380000 -6.740940
115.400000 -7.143411
115.420000 -7.583019
115.440000 -7.940525
115.460000 -8.389529
115.480000 -8.956721
115.500000 -9.589141
115.520000 -9.939113
115.540000 -9.855219
115.560000 -9.832380
115.580000 -9.839045
115.600000 -9.643796
115.620000 -9.275788
115.640000 -8.937663
115.660000 -8.904643
115.680000 -8.788331
115.700000 -8.427618
115.720000 -8.094548
115.740000 -7.741775
115.760000 -7.291343
115.780000 -6.720383
115.800000 -6.051387
115.820000 -5.449620
115.840000 -5.026732
115.860000 -4.790061
115.880000 -4.616644
115.900000 -4.325668
115.920000 -4.100662
115.940000 -3.940771
115.960000 -3.649333
115.980000 -3.105386
116.000000 -2.561006
116.020000 -2.268125
116.040000 -1.833251
116.060000 -1.415698
116.080000 -1.275273
116.100000 -1.147926
116.120000 -0.995555
116.140000 -0.725682
116.160000 -0.432060
116.180000 -0.139796
116.200000 0.296745
116.220000 0.750132
116.240000 1.074030
116.260000 1.358887
116.280000 1.632835
116.300000 1.790778
116.320000 2.052823
116.340000 2.381693
116.360000 2.757655
116.380000 3.138841
116.400000 3.684608
116.420000 4.227182
116.440000 4.628477
116.460000 4.977623
116.480000 5.343573
116.500000 5.700084
116.520000 5.972240
116.540000 6.264546
116.560000 6.745534
116.580000 7.215809
116.600000 7.618111
116.620000 7.987576
116.640000 8.352588
116.660000 8.612238
116.680000 8.727892
116.700000 8.840955
116.720000 8.979393
116.740000 9.160120
116.760000 9.341436
116.780000 9.546347
116.800000 9.774518
116.820000 9.888267
116.840000 9.906695
116.860000 9.803253
116.880000 9.540311
116.900000 9.273169
116.920000 8.992094
116.940000 8.636926
116.960000 8.329132
116.980000 8.065085
117.000000 7.858927
117.020000 7.588956
117.040000 7.188922
117.060000 6.790904
117.080000 6.485239
117.100000 6.064312
117.120000 5.595199
117.140000 5.258292
117.160000 5.054319
117.180000 4.819847
117.200000 4.509994
117.220000 4.204959
117.240000 3.882139
117.260000 3.488295
117.280000 2.912434
117.300000 2.303918
117.320000 1.763976
117.340000 1.218069
117.360000 0.661617
117.380000 0.116508
117.400000 -0.428251
117.420000 -0.902503
117.440000 -1.419549
117.460000 -1.970792
117.480000 -2.533349
117.500000 -3.039375
117.520000 -3.366171
117.540000 -3.711102
117.560000 -4.064799
117.580000 -4.286837
117.600000 -4.388627
117.620000 -4.544176
117.640000 -4.897453
117.660000 -5.149472
117.680000 -5.310819
117.700000 -5.631398
117.720000 -5.956752
117.740000 -6.310029
117.760000 -6.509073
117.780000 -6.728786
117.800000 -7.151505
117.820000 -7.557659
117.840000 -7.905530
117.860000 -8.399289
117.880000 -8.945350
117.900000 -9.545143
117.920000 -9.925474
117.940000 -9.838247
117.960000 -9.818110
117.980000 -9.833304
118.000000 -9.653305
118.020000 -9.287313
118.040000 -8.963681
118.060000 -8.913479
118.080000 -8.789577
118.100000 -8.451914
118.120000 -8.105148
118.140000 -7.753132
118.160000 -7.309897
118.180000 -6.698720
118.200000 -6.087389
118.220000 -5.440434
118.240000 -4.970901
118.260000 -4.770303
118.280000 -4.563613
118.300000 -4.277468
118.320000 -4.019204
118.340000 -3.860000
118.360000 -3.591793
118.380000 -3.043492
118.400000 -2.521656
118.420000 -2.213442
118.440000 -1.800959
118.460000 -1.398110
118.480000 -1.237590
118.500000 -1.172880
118.520000 -0.992152
118.540000 -0.719353
118.560000 -0.494613
118.580000 -0.161711
118.600000 0.252005
118.620000 0.679527
118.640000 1.055000
118.660000 1.285131
118.680000 1.595880
118.700000 1.764858
118.720000 1.957012
118.740000 2.354498
118.760000 2.692371
118.780000 3.077828
118.800000 3.645776
118.820000 4.185522
118.840000 4.607598
118.860000 4.945037
118.880000 5.336179
118.900000 5.721145
118.920000 5.962647
118.940000 6.259855
118.960000 6.747676
118.980000 7.246924
119.000000 7.613644
119.020000 7.984313
119.040000 8.388605
119.060000 8.632123
119.080000 8.743212
119.100000 8.869998
119.120000 8.994166
119.140000 9.177022
119.160000 9.353534
119.180000 9.566764
119.200000 9.810730
119.220000 9.874656
119.240000 9.934044
119.260000 9.884822
119.280000 9.559734
119.300000 9.279079
119.320000 9.026738
119.340000 8.697771
119.360000 8.346678
119.380000 8.031659
119.400000 7.882957
119.420000 7.613420
119.440000 7.195546
119.460000 6.801463
119.480000 6.451757
119.500000 6.081312
119.520000 5.594359
119.540000 5.228899
119.560000 5.036115
119.580000 4.735980
119.600000 4.507221
119.620000 4.229367
119.640000 3.797615
119.660000 3.451788
119.680000 2.915963
119.700000 2.314658
119.720000 1.731796
119.740000 1.125072
119.760000 0.685367
119.780000 0.154765
119.800000 -0.505437
119.820000 -0.905304
119.840000 -1.362696
119.860000 -1.930574
119.880000 -2.519052
119.900000 -3.042903
119.920000 -3.328390
119.940000 -3.677942
119.960000 -4.111626
119.980000 -4.290183
120.000000 -4.366474
120.020000 -4.581775
120.040000 -4.873171
120.060000 -5.126254
120.080000 -5.302025
120.100000 -5.615882
120.120000 -5.961247
120.140000 -6.297090
120.160000 -6.523188
120.180000 -6.764760
120.200000 -7.124381
120.220000 -7.546624
120.240000 -7.932795
120.260000 -8.369448
120.280000 -8.872575
120.300000 -9.502166
120.320000 -9.907844
120.340000 -9.803267
120.360000 -9.767012
120.380000 -9.839577
120.400000 -9.681465
120.420000 -9.238777
120.440000 -8.919080
120.460000 -8.910734
120.480000 -8.776078
120.500000 -8.414091
120.520000 -8.065827
120.540000 -7.778030
120.560000 -7.314224
120.580000 -6.678948
120.600000 -6.106238
120.620000 -5.479391
120.640000 -4.973520
120.660000 -4.748808
120.680000 -4.575656
120.700000 -4.266602
120.720000 -3.999179
120.740000 -3.882531
120.760000 -3.619758
120.780000 -3.066429
120.800000 -2.536640
120.820000 -2.292785
120.840000 -1.858947
120.860000 -1.399426
120.880000 -1.262936
120.900000 -1.197218
120.920000 -0.997390
120.940000 -0.701261
120.960000 -0.474112
120.980000 -0.191944
121.000000 0.272282
121.020000 0.730079
121.040000 1.039470
121.060000 1.334801
121.080000 1.634473
121.100000 1.790316
121.120000 2.004498
121.140000 2.349135
121.160000 2.709721
121.180000 3.089143
121.200000 3.603150
121.220000 4.199161
121.240000 4.599532
121.260000 4.904777
121.280000 5.346415
121.300000 5.715264
121.320000 5.952635
121.340000 6.255178
121.360000 6.726853
121.380000 7.237262
121.400000 7.573525
121.420000 7.950047
121.440000 8.344382
121.460000 8.580017
121.480000 8.693262
121.500000 8.784186
121.520000 8.949159
121.540000 9.071451
121.560000 9.233722
121.580000 9.496453
121.600000 9.690820
121.620000 9.800662
121.640000 9.864335
121.660000 9.796629
121.680000 9.554567
121.700000 9.264655
121.720000 9.030757
121.740000 8.733157
121.760000 8.333907
121.780000 8.082883
121.800000 7.937920
121.820000 7.601279
121.840000 7.232725
121.860000 6.833251
121.880000 6.517573
121.900000 6.139930
121.920000 5.576743
121.940000 5.292446
121.960000 5.071711
121.980000 4.761089
122.000000 4.475868
122.020000 4.197887
122.040000 3.890121
122.060000 3.460414
122.080000 2.907337
122.100000 2.375335
122.120000 1.795680
122.140000 1.210367
122.160000 0.703935
122.180000 0.159260
122.200000 -0.378245
122.220000 -0.856124
122.240000 -1.355568
122.260000 -1.840182
122.280000 -2.463402
122.300000 -2.957245
122.320000 -3.276550
122.340000 -3.648955
122.360000 -4.019344
122.380000 -4.275144
122.400000 -4.372761
122.420000 -4.567268
122.440000 -4.905183
122.460000 -5.169147
122.480000 -5.331096
122.500000 -5.683658
122.520000 -6.005246
122.540000 -6.321470
122.560000 -6.554150
122.580000 -6.768303
122.600000 -7.156294
122.620000 -7.524191
122.640000 -7.890589
122.660000 -8.372263
122.680000 -8.838197
122.700000 -9.430077
122.720000 -9.880341
122.740000 -9.868480
122.760000 -9.751258
122.780000 -9.767726
122.800000 -9.665053
122.820000 -9.314899
122.840000 -8.912989
122.860000 -8.854707
122.880000 -8.829248
122.900000 -8.454812
122.920000 -8.109671
122.940000 -7.811204
122.960000 -7.388008
122.980000 -6.791717
123.000000 -6.134371
123.020000 -5.552909
123.040000 -5.070283
123.060000 -4.729903
123.080000 -4.605413
123.100000 -4.369596
123.120000 -4.026668
123.140000 -3.872841
123.160000 -3.656349
123.180000 -3.178344
123.200000 -2.576577
123.220000 -2.234699
123.240000 -1.959113
123.260000 -1.485799
123.280000 -1.248764
123.300000 -1.197386
123.320000 -1.047998
123.340000 -0.793963
123.360000 -0.470989
123.380000 -0.188401
123.400000 0.209378
123.420000 0.711693
123.440000 1.053137
123.460000 1.301543
123.480000 1.618985
123.500000 1.810943
123.520000 1.950403
123.540000 2.306789
123.560000 2.700605
123.580000 3.077814
123.600000 3.569234
123.620000 4.159000
123.640000 4.661090
123.660000 4.970635
123.680000 5.346681
123.700000 5.765746
123.720000 6.072728
123.740000 6.310897
123.760000 6.758879
123.780000 7.325287
123.800000 7.698379
123.820000 8.041783
123.840000 8.425055
123.860000 8.726842
123.880000 8.840465
123.900000 8.868976
123.920000 9.037885
123.940000 9.200086
123.960000 9.308794
123.980000 9.502376
124.000000 9.756789
124.020000 9.850444
124.040000 9.840698
124.060000 9.818782
124.080000 9.552466
124.100000 9.227686
124.120000 8.928910
124.140000 8.641715
124.160000 8.309920
124.180000 7.943227
124.200000 7.785886
124.220000 7.587808
124.240000 7.194650
124.260000 6.739932
124.280000 6.435457
124.300000 6.099600
124.320000 5.582596
124.340000 5.159120
124.360000 4.960931
124.380000 4.760626
124.400000 4.409436
124.420000 4.119874
124.440000 3.831489
124.460000 3.444814
124.480000 2.905712
124.500000 2.312208
124.520000 1.819009
124.540000 1.232128
124.560000 0.674682
124.580000 0.224558
124.600000 -0.334848
124.620000 -0.821255
124.640000 -1.291825
124.660000 -1.818085
124.680000 -2.323270
124.700000 -2.879862
124.720000 -3.323335
124.740000 -3.563381
124.760000 -3.940197
124.780000 -4.290365
124.800000 -4.347401
124.820000 -4.539065
124.840000 -4.820001
124.860000 -5.102267
124.880000 -5.361217
124.900000 -5.618487
124.920000 -5.939864
124.940000 -6.347194
124.960000 -6.591917
124.980000 -6.785709
125.000000 -7.185071
125.020000 -7.586926
125.040000 -7.948143
125.060000 -8.392301
125.080000 -8.912723
125.100000 -9.531349
125.120000 -9.931481
125.140000 -9.885900
125.160000 -9.846971
125.180000 -9.913627
125.200000 -9.713659
125.220000 -9.317196
125.240000 -9.002946
125.260000 -8.916293
125.280000 -8.820412
125.300000 -8.488911
125.320000 -8.151640
125.340000 -7.832279
125.360000 -7.369313
125.380000 -6.789476
125.400000 -6.169827
125.420000 -5.542252
125.440000 -5.003501
125.460000 -4.748471
125.480000 -4.570405
125.500000 -4.240499
125.520000 -3.997275
125.540000 -3.826476
125.560000 -3.529408
125.580000 -3.046082
125.600000 -2.509795
125.620000 -2.179148
125.640000 -1.817021
125.660000 -1.351843
125.680000 -1.197932
125.700000 -1.148472
125.720000 -0.960659
125.740000 -0.718149
125.760000 -0.476759
125.780000 -0.167228
125.800000 0.251935
125.820000 0.690940
125.840000 1.034191
125.860000 1.312956
125.880000 1.565002
125.900000 1.742971
125.920000 1.927759
125.940000 2.274273
125.960000 2.624105
125.980000 2.965633
126.000000 3.516539
126.020000 4.077850
126.040000 4.497223
126.060000 4.842952
126.080000 5.243729
126.100000 5.646549
126.120000 5.912305
126.140000 6.227143
126.160000 6.699532
126.180000 7.230638
126.200000 7.631499
126.220000 7.998373
126.240000 8.418978
126.260000 8.683445
126.280000 8.784494
126.300000 8.934862
126.320000 9.040713
126.340000 9.166099
126.360000 9.389677
126.380000 9.558250
126.400000 9.792694
126.420000 9.914537
126.440000 9.929325
126.460000 9.912633
126.480000 9.622455
126.500000 9.294594
126.520000 9.082317
126.540000 8.749779
126.560000 8.384516
126.580000 8.089297
126.600000 7.901413
126.620000 7.676589
126.640000 7.236057
126.660000 6.832971
126.680000 6.517027
126.700000 6.096702
126.720000 5.608446
126.740000 5.220539
126.760000 5.020767
126.780000 4.758400
126.800000 4.420023
126.820000 4.165049
126.840000 3.818592
126.860000 3.408027
126.880000 2.889847
126.900000 2.301005
126.920000 1.725845
126.940000 1.186071
126.960000 0.652347
126.980000 0.144249
127.000000 -0.332566
127.020000 -0.858504
127.040000 -1.310001
127.060000 -1.776565
127.080000 -2.410469
127.100000 -2.885660
127.120000 -3.272573
127.140000 -3.635540
127.160000 -3.956861
127.180000 -4.253971
127.200000 -4.398695
127.220000 -4.525034
127.240000 -4.863873
127.260000 -5.152273
127.280000 -5.342032
127.300000 -5.682664
127.320000 -5.976581
127.340000 -6.355806
127.360000 -6.617221
127.380000 -6.801799
127.400000 -7.184833
127.420000 -7.562406
127.440000 -7.975281
127.460000 -8.418740
127.480000 -8.881369
127.500000 -9.507417
127.520000 -9.956715
127.540000 -9.916610
127.560000 -9.840081
127.580000 -9.843820
127.600000 -9.775078
127.620000 -9.373237
127.640000 -8.973623
127.660000 -8.949355
127.680000 -8.831391
127.700000 -8.518416
127.720000 -8.136880
127.740000 -7.790073
127.760000 -7.409335
127.780000 -6.788734
127.800000 -6.117202
127.820000 -5.547069
127.840000 -4.963941
127.860000 -4.699530
127.880000 -4.523998
127.900000 -4.221259
127.920000 -3.935352
127.940000 -3.731589
127.960000 -3.550722
127.980000 -3.000025
128.000000 -2.433015
128.020000 -2.155664
128.040000 -1.792613
128.060000 -1.396472
128.080000 -1.126977
128.100000 -1.125913
128.120000 -1.016560
128.140000 -0.678071
128.160000 -0.481380
128.180000 -0.184046
128.200000 0.246123
128.220000 0.652823
128.240000 1.084519
128.260000 1.304176
128.280000 1.563728
128.300000 1.825143
128.320000 1.918979
128.340000 2.273475
128.360000 2.663734
128.380000 2.962608
128.400000 3.499427
128.420000 4.039887
128.440000 4.475518
128.460000 4.826008
128.480000 5.183836
128.500000 5.627029
128.520000 5.920903
128.540000 6.162139
128.560000 6.681580
128.580000 7.202813
128.600000 7.627255
128.620000 7.977032
128.640000 8.383605
128.660000 8.724055
128.680000 8.778976
128.700000 8.908269
128.720000 9.068440
128.740000 9.188379
128.760000 9.358548
128.780000 9.566820
128.800000 9.816234
128.820000 9.921245
128.840000 9.933218
128.860000 9.903685
128.880000 9.678763
128.900000 9.328174
128.920000 9.054185
128.940000 8.806087
128.960000 8.426470
128.980000 8.070770
129.000000 7.899887
129.020000 7.706024
129.040000 7.300459
129.060000 6.847562
129.080000 6.505754
129.100000 6.190174
129.120000 5.690086
129.140000 5.206186
129.160000 5.037361
129.180000 4.777626
129.200000 4.460842
129.220000 4.153945
129.240000 3.780125
129.260000 3.428024
129.280000 2.883741
129.300000 2.292589
129.320000 1.697082
129.340000 1.117847
129.360000 0.618501
129.380000 0.138507
129.400000 -0.416824
129.420000 -0.929375
129.440000 -1.348524
129.460000 -1.799629
129.480000 -2.383989
129.500000 -2.967271
129.520000 -3.284504
129.540000 -3.570634
129.560000 -3.975654
129.580000 -4.284078
129.600000 -4.405207
129.620000 -4.505135
129.640000 -4.833542
129.660000 -5.184382
129.680000 -5.339372
129.700000 -5.611681
129.720000 -5.968767
129.740000 -6.347390
129.760000 -6.571556
129.780000 -6.778918
129.800000 -7.171880
129.820000 -7.575037
129.840000 -7.940973
129.860000 -8.375763
129.880000 -8.886704
129.900000 -9.497363
129.920000 -9.925068
129.940000 -9.881419
129.960000 -9.863299
129.980000 -9.875370
130.000000 -9.752714
130.020000 -9.363869
130.040000 -8.973357
130.060000 -8.944454
130.080000 -8.782029
130.100000 -8.421484
130.120000 -8.116043
130.140000 -7.758145
130.160000 -7.336336
130.180000 -6.761777
130.200000 -6.121460
130.220000 -5.551929
130.240000 -4.986795
130.260000 -4.700804
130.280000 -4.576300
130.300000 -4.234044
130.320000 -3.957015
130.340000 -3.802642
130.360000 -3.583783
130.380000 -3.075713
130.400000 -2.505412
130.420000 -2.285825
130.440000 -1.887864
130.460000 -1.403921
130.480000 -1.261647
130.500000 -1.175905
130.520000 -1.024248
130.540000 -0.742991
130.560000 -0.465122
130.580000 -0.231098
130.600000 0.235074
130.620000 0.716594
130.640000 1.020565
130.660000 1.338232
130.680000 1.659133
130.700000 1.822720
130.720000 2.014188
130.740000 2.365757
130.760000 2.702300
130.780000 3.032597
130.800000 3.541073
130.820000 4.107958
130.840000 4.531895
130.860000 4.833962
130.880000 5.247467
130.900000 5.677847
130.920000 5.933464
130.940000 6.182388
130.960000 6.722246
130.980000 7.226535
131.000000 7.602526
131.020000 8.003260
131.040000 8.407033
131.060000 8.701160
131.080000 8.807851
131.100000 8.893314
131.120000 9.065485
131.140000 9.189779
131.160000 9.328791
131.180000 9.555533
131.200000 9.786449
131.220000 9.856941
131.240000 9.920013
131.260000 9.886727
131.280000 9.632201
131.300000 9.339909
131.320000 9.064421
131.340000 8.767942
131.360000 8.384333
131.380000 8.114405
131.400000 7.893473
131.420000 7.661956
131.440000 7.278572
131.460000 6.859815
131.480000 6.580574
131.500000 6.153807
131.520000 5.611849
131.540000 5.288791
131.560000 5.044839
131.580000 4.740350
131.600000 4.412909
131.620000 4.116640
131.640000 3.817682
131.660000 3.404470
131.680000 2.801093
131.700000 2.304170
131.720000 1.742551
131.740000 1.132886
131.760000 0.624312
131.780000 0.100852
131.800000 -0.409080
131.820000 -0.911241
131.840000 -1.379220
131.860000 -1.848402
131.880000 -2.416813
131.900000 -2.922923
131.920000 -3.277166
131.940000 -3.593964
131.960000 -3.994754
131.980000 -4.257667
132.000000 -4.350510
132.020000 -4.550408
132.040000 -4.850752
132.060000 -5.130875
132.080000 -5.321349
132.100000 -5.607270
132.120000 -5.973710
132.140000 -6.326749
132.160000 -6.546952
132.180000 -6.772896
132.200000 -7.131368
132.220000 -7.539370
132.240000 -7.917671
132.260000 -8.318140
132.280000 -8.826630
132.300000 -9.418104
132.320000 -9.902018
132.340000 -9.881391
132.360000 -9.791378
132.380000 -9.869348
132.400000 -9.741512
132.420000 -9.354053
132.440000 -8.986212
132.460000 -8.904405
132.480000 -8.809490
132.500000 -8.453034
132.520000 -8.086398
132.540000 -7.835542
132.560000 -7.383779
132.580000 -6.811321
132.600000 -6.205508
132.620000 -5.606346
132.640000 -5.106089
132.660000 -4.739943
132.680000 -4.601814
132.700000 -4.346155
132.720000 -4.001126
132.740000 -3.860910
132.760000 -3.620416
132.780000 -3.112052
132.800000 -2.590581
132.820000 -2.250915
132.840000 -1.879504
132.860000 -1.423568
132.880000 -1.186687
132.900000 -1.139454
132.920000 -0.975460
132.940000 -0.654937
132.960000 -0.461579
132.980000 -0.159218
133.000000 0.290598
133.020000 0.741282
133.040000 1.112077
133.060000 1.385059
133.080000 1.695976
133.100000 1.906936
133.120000 2.057543
133.140000 2.373683
133.160000 2.729396
133.180000 3.081091
133.200000 3.502018
133.220000 4.092148
133.240000 4.532932
133.260000 4.838429
133.280000 5.230159
133.300000 5.589514
133.320000 5.899842
133.340000 6.166536
133.360000 6.629460
133.380000 7.166545
133.400000 7.546162
133.420000 7.978012
133.440000 8.394612
133.460000 8.671739
133.480000 8.824137
133.500000 8.928252
133.520000 9.066648
133.540000 9.213977
133.560000 9.331955
133.580000 9.561709
133.600000 9.796727
133.620000 9.903965
133.640000 9.968478
133.660000 9.893476
133.680000 9.695539
133.700000 9.370240
133.720000 9.058287
133.740000 8.794282
133.760000 8.381407
133.780000 8.092881
133.800000 7.904326
133.820000 7.643023
133.840000 7.291133
133.860000 6.888928
133.880000 6.563742
133.900000 6.206950
133.920000 5.664824
133.940000 5.273150
133.960000 5.064653
133.980000 4.747029
134.000000 4.437961
134.020000 4.142098
134.040000 3.798049
134.060000 3.404232
134.080000 2.844812
134.100000 2.274357
134.120000 1.720188
134.140000 1.120689
134.160000 0.584907
134.180000 0.103653
134.200000 -0.410453
134.220000 -0.948350
134.240000 -1.395043
134.260000 -1.816699
134.280000 -2.417961
134.300000 -2.945104
134.320000 -3.293256
134.340000 -3.614843
134.360000 -3.965025
134.380000 -4.272399
134.400000 -4.380253
134.420000 -4.506521
134.440000 -4.782920
134.460000 -5.107644
134.480000 -5.290360
134.500000 -5.553567
134.520000 -5.935887
134.540000 -6.291306
134.560000 -6.534741
134.580000 -6.761091
134.600000 -7.147864
134.620000 -7.531935
134.640000 -7.884917
134.660000 -8.354716
134.680000 -8.846193
134.700000 -9.430651
134.720000 -9.902620
134.740000 -9.929255
134.760000 -9.866520
134.780000 -9.867220
134.800000 -9.760178
134.820000 -9.394956
134.840000 -9.016473
134.860000 -8.910650
134.880000 -8.787042
134.900000 -8.547529
134.920000 -8.135060
134.940000 -7.809579
134.960000 -7.466623
134.980000 -6.872376
135.000000 -6.229916
135.020000 -5.656814
135.040000 -5.118552
135.060000 -4.793128
135.080000 -4.646373
135.100000 -4.350804
135.120000 -4.075680
135.140000 -3.876412
135.160000 -3.603962
135.180000 -3.181243
135.200000 -2.570542
135.220000 -2.179092
135.240000 -1.858429
135.260000 -1.408108
135.280000 -1.152925
135.300000 -1.092655
135.320000 -0.952901
135.340000 -0.686025
135.360000 -0.435701
135.380000 -0.126212
135.400000 0.285599
135.420000 0.725865
135.440000 1.143529
135.460000 1.436577
135.480000 1.684339
135.500000 1.946720
135.520000 2.091725
135.540000 2.361654
135.560000 2.787426
135.580000 3.099407
135.600000 3.549741
135.620000 4.131385
135.640000 4.566932
135.660000 4.879935
135.680000 5.269313
135.700000 5.601529
135.720000 5.909463
135.740000 6.184993
135.760000 6.606144
135.780000 7.131242
135.800000 7.560165
135.820000 7.926101
135.840000 8.322775
135.860000 8.669330
135.880000 8.745214
135.900000 8.878274
135.920000 9.043878
135.940000 9.114959
135.960000 9.323539
135.980000 9.527526
136.000000 9.759114
136.020000 9.893826
136.040000 9.882904
136.060000 9.860932
136.080000 9.684742
136.100000 9.326872
136.120000 9.023251
136.140000 8.783471
136.160000 8.410744
136.180000 8.129388
136.200000 7.906721
136.220000 7.686252
136.240000 7.394744
136.260000 6.925337
136.280000 6.608917
136.300000 6.216542
136.320000 5.732852
136.340000 5.343166
136.360000 5.064808
136.380000 4.765990
136.400000 4.446769
136.420000 4.176042
136.440000 3.804309
136.460000 3.357041
136.480000 2.820516
136.500000 2.233817
136.520000 1.641433
136.540000 1.028295
136.560000 0.502385
136.580000 -0.014185
136.600000 -0.504037
136.620000 -1.037859
136.640000 -1.515584
136.660000 -1.923068
136.680000 -2.508437
136.700000 -3.012740
136.720000 -3.343080
136.740000 -3.714113
136.760000 -3.994614
136.780000 -4.249910
136.800000 -4.452594
136.820000 -4.517724
136.840000 -4.796685
136.860000 -5.140552
136.880000 -5.294519
136.900000 -5.633554
136.920000 -5.939822
136.940000 -6.270441
136.960000 -6.616619
136.980000 -6.761259
137.000000 -7.114620
137.020000 -7.567321
137.040000 -7.915627
137.060000 -8.353904
137.080000 -8.842132
137.100000 -9.454695
137.120000 -9.939155
137.140000 -9.901794
137.160000 -9.818096
137.180000 -9.850766
137.200000 -9.767726
137.220000 -9.367062
137.240000 -8.965627
137.260000 -8.905679
137.280000 -8.780209
137.300000 -8.459742
137.320000 -8.104714
137.340000 -7.778800
137.360000 -7.374523
137.380000 -6.802191
137.400000 -6.165724
137.420000 -5.577275
137.440000 -5.021187
137.460000 -4.719134
137.480000 -4.599392
137.500000 -4.298641
137.520000 -3.975514
137.540000 -3.817430
137.560000 -3.630625
137.580000 -3.108915
137.600000 -2.518940
137.620000 -2.221634
137.640000 -1.877361
137.660000 -1.422280
137.680000 -1.160361
137.700000 -1.094125
137.720000 -1.010455
137.740000 -0.670145
137.760000 -0.420913
137.780000 -0.164400
137.800000 0.286929
137.820000 0.728399
137.840000 1.129301
137.860000 1.417323
137.880000 1.696032
137.900000 1.938598
137.920000 2.071756
137.940000 2.397922
137.960000 2.762206
137.980000 3.081833
138.000000 3.518178
138.020000 4.054941
138.040000 4.536713
138.060000 4.781015
138.080000 5.130007
138.100000 5.572458
138.120000 5.825624
138.140000 6.078777
138.160000 6.534489
138.180000 7.052977
138.200000 7.510341
138.220000 7.876683
138.240000 8.261286
138.260000 8.640203
138.280000 8.783107
138.300000 8.874479
138.320000 9.052560
138.340000 9.199413
138.360000 9.369708
138.380000 9.563963
138.400000 9.795971
138.420000 9.894400
138.440000 9.912045
138.460000 9.892664
138.480000 9.629079
138.500000 9.319184
138.520000 9.020198
138.540000 8.719042
138.560000 8.409203
138.580000 8.042483
138.600000 7.862092
138.620000 7.681589
138.640000 7.286946
138.660000 6.876647
138.680000 6.544221
138.700000 6.184251
138.720000 5.755061
138.740000 5.281510
138.760000 5.018316
138.780000 4.828837
138.800000 4.460884
138.820000 4.132001
138.840000 3.801144
138.860000 3.380861
138.880000 2.907659
138.900000 2.286526
138.920000 1.675671
138.940000 1.149144
138.960000 0.605562
138.980000 0.099312
139.000000 -0.433614
139.020000 -0.937175
139.040000 -1.377455
139.060000 -1.854830
139.080000 -2.411184
139.100000 -2.948745
139.120000 -3.294936
139.140000 -3.580367
139.160000 -3.932719
139.180000 -4.247123
139.200000 -4.347233
139.220000 -4.486665
139.240000 -4.780343
139.260000 -5.090966
139.280000 -5.339189
139.300000 -5.577611
139.320000 -5.920161
139.340000 -6.318263
139.360000 -6.562958
139.380000 -6.813226
139.400000 -7.126747
139.420000 -7.543067
139.440000 -7.976836
139.460000 -8.378144
139.480000 -8.852746
139.500000 -9.453154
139.520000 -9.918514
139.540000 -9.949658
139.560000 -9.815730
139.580000 -9.832128
139.600000 -9.759646
139.620000 -9.385406
139.640000 -8.996043
139.660000 -8.873443
139.680000 -8.793190
139.700000 -8.512030
139.720000 -8.138546
139.740000 -7.834449
139.760000 -7.425173
139.780000 -6.866201
139.800000 -6.273704
139.820000 -5.632966
139.840000 -5.130917
139.860000 -4.811347
139.880000 -4.638979
139.900000 -4.404815
139.920000 -4.049227
139.940000 -3.900904
139.960000 -3.702140
139.980000 -3.168444
140.000000 -2.660233
140.020000 -2.283333
140.040000 -1.944101
140.060000 -1.499564
140.080000 -1.206180
140.100000 -1.172096
140.120000 -1.014124
140.140000 -0.689554
140.160000 -0.458414
140.180000 -0.149752
140.200000 0.283652
140.220000 0.744279
140.240000 1.157812
140.260000 1.422238
140.280000 1.735801
140.300000 1.968145
140.320000 2.114480
140.340000 2.434499
140.360000 2.790549
140.380000 3.133533
140.400000 3.577650
140.420000 4.101656
140.440000 4.580207
140.460000 4.828221
140.480000 5.216394
140.500000 5.596025
140.520000 5.857076
140.540000 6.140644
140.560000 6.551979
140.580000 7.108179
140.600000 7.536584
140.620000 7.900965
140.640000 8.328516
140.660000 8.659640
140.680000 8.823829
140.700000 8.922441
140.720000 9.065807
140.740000 9.238539
140.760000 9.386078
140.780000 9.596409
140.800000 9.810002
140.820000 9.881377
140.840000 9.931509
140.860000 9.903069
140.880000 9.627188
140.900000 9.308332
140.920000 8.993634
140.940000 8.741125
140.960000 8.376674
140.980000 8.024069
141.000000 7.885814
141.020000 7.659715
141.040000 7.347370
141.060000 6.887262
141.080000 6.561249
141.100000 6.262277
141.120000 5.716818
141.140000 5.323954
141.160000 5.091274
141.180000 4.778649
141.200000 4.509350
141.220000 4.164657
141.240000 3.796789
141.260000 3.421134
141.280000 2.831523
141.300000 2.265815
141.320000 1.696774
141.340000 1.047298
141.360000 0.529775
141.380000 0.048746
141.400000 -0.504471
141.420000 -0.987139
141.440000 -1.488110
141.460000 -1.907553
141.480000 -2.432567
141.500000 -2.987618
141.520000 -3.357685
141.540000 -3.624085
141.560000 -3.958990
141.580000 -4.244000
141.600000 -4.391274
141.620000 -4.522401
141.640000 -4.790818
141.660000 -5.099564
141.680000 -5.324164
141.700000 -5.608614
141.720000 -5.939290
141.740000 -6.309763
141.760000 -6.584341
141.780000 -6.807442
141.800000 -7.146954
141.820000 -7.548319
141.840000 -7.919730
141.860000 -8.355585
141.880000 -8.849917
141.900000 -9.418916
141.920000 -9.866464
141.940000 -9.908446
141.960000 -9.828501
141.980000 -9.846271
142.000000 -9.702624
142.020000 -9.343704
142.040000 -8.995356
142.060000 -8.831181
142.080000 -8.744654
142.100000 -8.487552
142.120000 -8.099323
142.140000 -7.789919
142.160000 -7.369916
142.180000 -6.824835
142.200000 -6.244227
142.220000 -5.596249
142.240000 -5.098626
142.260000 -4.840950
142.280000 -4.620607
142.300000 -4.391386
142.320000 -4.106725
142.340000 -3.892390
142.360000 -3.728746
142.380000 -3.179912
142.400000 -2.635966
142.420000 -2.305416
142.440000 -1.910731
142.460000 -1.489006
142.480000 -1.223264
142.500000 -1.111447
142.520000 -0.999938
142.540000 -0.705210
142.560000 -0.423504
142.580000 -0.129167
142.600000 0.300624
142.620000 0.719591
142.640000 1.155880
142.660000 1.458493
142.680000 1.711309
142.700000 1.942953
142.720000 2.098684
142.740000 2.420384
142.760000 2.761534
142.780000 3.071652
142.800000 3.558241
142.820000 4.075736
142.840000 4.510386
142.860000 4.819889
142.880000 5.173110
142.900000 5.530279
142.920000 5.850102
142.940000 6.099404
142.960000 6.538060
142.980000 7.076895
143.000000 7.509137
143.020000 7.938424
143.040000 8.297919
143.060000 8.644068
143.080000 8.841389
143.100000 8.950196
143.120000 9.081169
143.140000 9.209720
143.160000 9.424279
143.180000 9.610874
143.200000 9.780623
143.220000 9.893434
143.240000 9.923892
143.260000 9.867570
143.280000 9.611897
143.300000 9.262709
143.320000 8.996729
143.340000 8.701188
143.360000 8.321066
143.380000 8.005094
143.400000 7.808193
143.420000 7.607315
143.440000 7.260409
143.460000 6.817609
143.480000 6.504844
143.500000 6.138264
143.520000 5.720683
143.540000 5.267016
143.560000 4.986515
143.580000 4.809610
143.600000 4.465323
143.620000 4.127716
143.640000 3.803510
143.660000 3.377276
143.680000 2.916621
143.700000 2.293905
143.720000 1.675657
143.740000 1.184517
143.760000 0.621343
143.780000 0.117726
143.800000 -0.372952
143.820000 -0.914686
143.840000 -1.321176
143.860000 -1.807498
143.880000 -2.392727
143.900000 -2.844714
143.920000 -3.267896
143.940000 -3.544532
143.960000 -3.853726
143.980000 -4.182819
144.000000 -4.304775
144.020000 -4.456319
144.040000 -4.717258
144.060000 -5.076864
144.080000 -5.334652
144.100000 -5.583058
144.120000 -5.938898
144.140000 -6.333134
144.160000 -6.620890
144.180000 -6.880876
144.200000 -7.144153
144.220000 -7.606250
144.240000 -8.051165
144.260000 -8.424159
144.280000 -8.935366
144.300000 -9.510106
144.320000 -10.026840
144.340000 -10.111470
144.360000 -9.930571
144.380000 -9.938637
144.400000 -9.865638
144.420000 -9.519978
144.440000 -9.070456
144.460000 -8.898523
144.480000 -8.828296
144.500000 -8.557163
144.520000 -8.174479
144.540000 -7.782175
144.560000 -7.409531
144.580000 -6.863120
144.600000 -6.219595
144.620000 -5.613571
144.640000 -5.055201
144.660000 -4.716306
144.680000 -4.578093
144.700000 -4.300938
144.720000 -3.948417
144.740000 -3.814335
144.760000 -3.590463
144.780000 -3.115539
144.800000 -2.553752
144.820000 -2.149447
144.840000 -1.872460
144.860000 -1.381712
144.880000 -1.077209
144.900000 -1.012877
144.920000 -0.882520
144.940000 -0.608460
144.960000 -0.303131
144.980000 -0.055019
145.000000 0.339050
145.020000 0.787493
145.040000 1.175457
145.060000 1.441843
145.080000 1.711575
145.100000 1.907230
145.120000 2.072106
145.140000 2.349499
145.160000 2.691209
145.180000 3.026197
145.200000 3.437644
145.220000 3.999109
145.240000 4.436925
145.260000 4.713197
145.280000 5.078965
145.300000 5.462559
145.320000 5.774498
145.340000 6.011225
145.360000 6.448746
145.380000 7.031034
145.400000 7.450435
145.420000 7.849699
145.440000 8.256539
145.460000 8.639881
145.480000 8.819922
145.500000 8.918786
145.520000 9.081897
145.540000 9.249307
145.560000 9.427234
145.580000 9.636599
145.600000 9.849814
145.620000 9.932238
145.640000 9.984834
145.660000 9.949294
145.680000 9.688887
145.700000 9.330933
145.720000 9.050180
145.740000 8.791159
145.760000 8.402594
145.780000 8.049849
145.800000 7.860187
145.820000 7.670960
145.840000 7.333619
145.860000 6.833629
145.880000 6.525009
145.900000 6.197638
145.920000 5.707800
145.940000 5.280529
145.960000 5.003501
145.980000 4.760962
146.000000 4.454793
146.020000 4.115617
146.040000 3.757635
146.060000 3.348429
146.080000 2.811106
146.100000 2.261516
146.120000 1.645494
146.140000 1.035731
146.160000 0.560345
146.180000 0.066880
146.200000 -0.462517
146.220000 -0.962479
146.240000 -1.426775
146.260000 -1.807260
146.280000 -2.380264
146.300000 -2.932207
146.320000 -3.269296
146.340000 -3.530739
146.360000 -3.888805
146.380000 -4.176336
146.400000 -4.325864
146.420000 -4.466262
146.440000 -4.735798
146.460000 -5.095349
146.480000 -5.300568
146.500000 -5.606584
146.520000 -5.950576
146.540000 -6.319803
146.560000 -6.619867
146.580000 -6.853009
146.600000 -7.213638
146.620000 -7.610704
146.640000 -8.008427
146.660000 -8.483701
146.680000 -8.958808
146.700000 -9.510820
146.720000 -9.995827
146.740000 -10.042910
146.760000 -9.908712
146.780000 -9.902620
146.800000 -9.813153
146.820000 -9.441644
146.840000 -9.018434
146.860000 -8.862198
146.880000 -8.789339
146.900000 -8.496949
146.920000 -8.090179
146.940000 -7.735712
146.960000 -7.366359
146.980000 -6.791913
147.000000 -6.150152
147.020000 -5.591656
147.040000 -5.045357
147.060000 -4.752574
147.080000 -4.591102
147.100000 -4.332039
147.120000 -4.026878
147.140000 -3.840549
147.160000 -3.665717
147.180000 -3.158473
147.200000 -2.583201
147.220000 -2.252329
147.240000 -1.921010
147.260000 -1.477607
147.280000 -1.160837
147.300000 -1.129498
147.320000 -1.012149
147.340000 -0.686011
147.360000 -0.425716
147.380000 -0.151726
147.400000 0.238141
147.420000 0.699524
147.440000 1.116264
147.460000 1.366224
147.480000 1.644541
147.500000 1.907020
147.520000 2.039086
147.540000 2.365393
147.560000 2.756017
147.580000 3.072465
147.600000 3.546563
147.620000 4.090089
147.640000 4.545409
147.660000 4.836455
147.680000 5.168670
147.700000 5.605870
147.720000 5.861137
147.740000 6.110201
147.760000 6.577283
147.780000 7.109341
147.800000 7.559549
147.820000 7.917601
147.840000 8.332899
147.860000 8.708876
147.880000 8.838939
147.900000 8.951974
147.920000 9.126274
147.940000 9.267540
147.960000 9.447077
147.980000 9.621741
148.000000 9.844198
148.020000 9.940318
148.040000 9.928723
148.060000 9.865736
148.080000 9.615481
148.100000 9.279233
148.120000 8.968386
148.140000 8.653520
148.160000 8.315703
148.180000 7.974763
148.200000 7.783841
148.220000 7.557393
148.240000 7.204550
148.260000 6.827257
148.280000 6.465830
148.300000 6.125815
148.320000 5.690828
148.340000 5.250492
148.360000 5.061587
148.380000 4.755837
148.400000 4.434068
148.420000 4.197971
148.440000 3.768208
148.460000 3.392960
148.480000 2.877328
148.500000 2.259793
148.520000 1.743279
148.540000 1.117539
148.560000 0.597342
148.580000 0.151208
148.600000 -0.413225
148.620000 -0.910149
148.640000 -1.357066
148.660000 -1.821166
148.680000 -2.369958
148.700000 -2.891513
148.720000 -3.279756
148.740000 -3.542544
148.760000 -3.884310
148.780000 -4.189177
148.800000 -4.323525
148.820000 -4.461809
148.840000 -4.755179
148.860000 -5.111383
148.880000 -5.321433
148.900000 -5.637671
148.920000 -5.962269
148.940000 -6.352949
148.960000 -6.669495
148.980000 -6.853359
149.000000 -7.240749
149.020000 -7.648036
149.040000 -8.009953
149.060000 -8.504510
149.080000 -8.941597
149.100000 -9.518662
149.120000 -9.985604
149.140000 -10.016680
149.160000 -9.918332
149.180000 -9.856941
149.200000 -9.754465
149.220000 -9.450424
149.240000 -9.033263
149.260000 -8.859398
149.280000 -8.747189
149.300000 -8.527994
149.320000 -8.160896
149.340000 -7.763536
149.360000 -7.402922
149.380000 -6.894823
149.400000 -6.238794
149.420000 -5.655708
149.440000 -5.125848
149.460000 -4.815982
149.480000 -4.654383
149.500000 -4.326998
149.520000 -4.042688
149.540000 -3.830411
149.560000 -3.599789
149.580000 -3.151206
149.600000 -2.539594
149.620000 -2.196008
149.640000 -1.824457
149.660000 -1.399636
149.680000 -1.116656
149.700000 -1.011673
149.720000 -0.907460
149.740000 -0.642783
149.760000 -0.378847
149.780000 -0.071235
149.800000 0.262059
149.820000 0.696527
149.840000 1.086297
149.860000 1.335445
149.880000 1.628634
149.900000 1.806308
149.920000 2.018473
149.940000 2.321436
149.960000 2.659071
149.980000 3.042077
150.000000 3.455121
150.020000 3.994446
150.040000 4.467984
150.060000 4.744354
150.080000 5.110697
150.100000 5.504485
150.120000 5.781892
150.140000 6.108198
150.160000 6.494131
150.180000 7.040486
150.200000 7.528658
150.220000 7.848831
150.240000 8.300733
150.260000 8.648227
150.280000 8.842356
150.300000 9.008632
150.320000 9.112593
150.340000 9.340973
150.360000 9.519530
150.380000 9.709276
150.400000 9.932028
150.420000 9.996317
150.440000 10.015420
150.460000 9.941396
150.480000 9.665698
150.500000 9.333174
150.520000 9.008940
150.540000 8.703848
150.560000 8.358987
150.580000 7.991175
150.600000 7.774543
150.620000 7.566159
150.640000 7.194832
150.660000 6.801659
150.680000 6.419703
150.700000 6.072896
150.720000 5.652361
150.740000 5.246263
150.760000 4.984484
150.780000 4.695819
150.800000 4.436743
150.820000 4.128304
150.840000 3.719868
150.860000 3.326458
150.880000 2.801373
150.900000 2.273292
150.920000 1.671666
150.940000 1.063052
150.960000 0.578199
150.980000 0.146629
151.000000 -0.389658
151.020000 -0.921211
151.040000 -1.349364
151.060000 -1.789980
151.080000 -2.321982
151.100000 -2.872903
151.120000 -3.257351
151.140000 -3.495100
151.160000 -3.820706
151.180000 -4.147979
151.200000 -4.280465
151.220000 -4.418720
151.240000 -4.718868
151.260000 -5.019619
151.280000 -5.309026
151.300000 -5.628849
151.320000 -5.933072
151.340000 -6.344659
151.360000 -6.619545
151.380000 -6.877487
151.400000 -7.231632
151.420000 -7.585722
151.440000 -8.020008
151.460000 -8.485718
151.480000 -8.981213
151.500000 -9.526896
151.520000 -10.018370
151.540000 -10.077770
151.560000 -9.950764
151.580000 -9.906948
151.600000 -9.850038
151.620000 -9.459610
151.640000 -9.048485
151.660000 -8.927370
151.680000 -8.792924
151.700000 -8.579806
151.720000 -8.210622
151.740000 -7.841325
151.760000 -7.470586
151.780000 -6.894893
151.800000 -6.284697
151.820000 -5.678491
151.840000 -5.130189
151.860000 -4.763483
151.880000 -4.624654
151.900000 -4.322783
151.920000 -3.970206
151.940000 -3.816043
151.960000 -3.576586
151.980000 -3.071904
152.000000 -2.489000
152.020000 -2.151337
152.040000 -1.777209
152.060000 -1.338694
152.080000 -1.052339
152.100000 -1.008130
152.120000 -0.876051
152.140000 -0.553455
152.160000 -0.378035
152.180000 -0.103317
152.200000 0.295555
152.220000 0.715978
152.240000 1.069857
152.260000 1.333317
152.280000 1.652201
152.300000 1.815522
152.320000 2.004540
152.340000 2.300823
152.360000 2.670540
152.380000 3.022164
152.400000 3.422717
152.420000 4.041918
152.440000 4.441896
152.460000 4.720955
152.480000 5.128761
152.500000 5.497722
152.520000 5.774806
152.540000 6.040996
152.560000 6.484189
152.580000 7.026749
152.600000 7.457591
152.620000 7.834379
152.640000 8.313392
152.660000 8.619702
152.680000 8.813117
152.700000 8.998185
152.720000 9.134004
152.740000 9.324982
152.760000 9.491762
152.780000 9.722075
152.800000 9.951562
152.820000 9.953789
152.840000 10.023780
152.860000 9.942670
152.880000 9.662925
152.900000 9.315641
152.920000 8.984406
152.940000 8.718328
152.960000 8.323013
152.980000 7.970212
153.000000 7.801289
153.020000 7.568861
153.040000 7.195672
153.060000 6.800189
153.080000 6.472580
153.100000 6.106336
153.120000 5.651591
153.140000 5.246613
153.160000 5.026662
153.180000 4.738165
153.200000 4.416354
153.220000 4.151312
153.240000 3.758237
153.260000 3.356761
153.280000 2.825543
153.300000 2.284341
153.320000 1.695430
153.340000 1.101519
153.360000 0.624046
153.380000 0.138577
153.400000 -0.394405
153.420000 -0.889438
153.440000 -1.343021
153.460000 -1.801477
153.480000 -2.360155
153.500000 -2.870914
153.520000 -3.225017
153.540000 -3.517394
153.560000 -3.878820
153.580000 -4.128122
153.600000 -4.269906
153.620000 -4.465645
153.640000 -4.722523
153.660000 -5.070493
153.680000 -5.346989
153.700000 -5.652039
153.720000 -5.991872
153.740000 -6.395575
153.760000 -6.680810
153.780000 -6.930448
153.800000 -7.239166
153.820000 -7.642323
153.840000 -8.111268
153.860000 -8.511904
153.880000 -8.984406
153.900000 -9.579283
153.920000 -10.076630
153.940000 -10.122700
153.960000 -9.934408
153.980000 -9.899232
154.000000 -9.853763
154.020000 -9.469566
154.040000 -8.998899
154.060000 -8.858712
154.080000 -8.792882
154.100000 -8.497803
154.120000 -8.126896
154.140000 -7.793181
154.160000 -7.402165
154.180000 -6.845658
154.200000 -6.234957
154.220000 -5.641648
154.240000 -5.076710
154.260000 -4.722831
154.280000 -4.584226
154.300000 -4.324015
154.320000 -3.937214
154.340000 -3.748855
154.360000 -3.567862
154.380000 -3.096536
154.400000 -2.476117
154.420000 -2.118947
154.440000 -1.834385
154.460000 -1.374640
154.480000 -1.044805
154.500000 -0.993735
154.520000 -0.916156
154.540000 -0.632770
154.560000 -0.356204
154.580000 -0.111607
154.600000 0.231434
154.620000 0.642040
154.640000 1.048740
154.660000 1.297804
154.680000 1.546084
154.700000 1.777937
154.720000 1.934887
154.740000 2.267075
154.760000 2.626709
154.780000 2.948885
154.800000 3.417395
154.820000 3.979351
154.840000 4.435902
154.860000 4.705215
154.880000 5.055299
154.900000 5.481044
154.920000 5.805992
154.940000 6.012191
154.960000 6.467483
154.980000 7.036243
155.000000 7.482587
155.020000 7.843075
155.040000 8.230969
155.060000 8.659374
155.080000 8.854048
155.100000 8.933672
155.120000 9.124383
155.140000 9.313821
155.160000 9.539429
155.180000 9.707960
155.200000 9.894218
155.220000 10.026350
155.240000 10.036870
155.260000 9.968730
155.280000 9.710872
155.300000 9.348059
155.320000 9.092148
155.340000 8.785572
155.360000 8.361564
155.380000 8.051726
155.400000 7.822588
155.420000 7.643149
155.440000 7.295362
155.460000 6.801939
155.480000 6.529672
155.500000 6.208560
155.520000 5.704089
155.540000 5.266036
155.560000 5.003599
155.580000 4.798702
155.600000 4.439641
155.620000 4.085594
155.640000 3.739613
155.660000 3.359310
155.680000 2.833777
155.700000 2.231646
155.720000 1.618117
155.740000 1.081816
155.760000 0.561437
155.780000 0.052261
155.800000 -0.448360
155.820000 -0.978527
155.840000 -1.379108
155.860000 -1.817875
155.880000 -2.397964
155.900000 -2.904144
155.920000 -3.236766
155.940000 -3.496248
155.960000 -3.850842
155.980000 -4.179809
156.000000 -4.305265
156.020000 -4.398429
156.040000 -4.715087
156.060000 -5.101454
156.080000 -5.312541
156.100000 -5.576785
156.120000 -5.951473
156.140000 -6.377385
156.160000 -6.657074
156.180000 -6.880106
156.200000 -7.221354
156.220000 -7.688646
156.240000 -8.078794
156.260000 -8.478744
156.280000 -8.995846
156.300000 -9.574228
156.320000 -10.032960
156.340000 -10.070170
156.360000 -9.929395
156.380000 -9.908040
156.400000 -9.802328
156.420000 -9.440285
156.440000 -9.021557
156.460000 -8.862927
156.480000 -8.764735
156.500000 -8.505071
156.520000 -8.184421
156.540000 -7.836116
156.560000 -7.444470
156.580000 -6.914946
156.600000 -6.305422
156.620000 -5.674850
156.640000 -5.143268
156.660000 -4.803785
156.680000 -4.604545
156.700000 -4.357960
156.720000 -4.002330
156.740000 -3.800318
156.760000 -3.604354
156.780000 -3.070854
156.800000 -2.521110
156.820000 -2.162162
156.840000 -1.755672
156.860000 -1.339618
156.880000 -1.066972
156.900000 -0.966680
156.920000 -0.880784
156.940000 -0.597047
156.960000 -0.372938
156.980000 -0.155493
157.000000 0.256570
157.020000 0.658564
157.040000 1.011841
157.060000 1.299400
157.080000 1.566235
157.100000 1.787488
157.120000 1.945838
157.140000 2.256656
157.160000 2.634607
157.180000 2.974385
157.200000 3.439437
157.220000 3.989125
157.240000 4.447021
157.260000 4.759394
157.280000 5.094145
157.300000 5.505059
157.320000 5.805698
157.340000 6.017905
157.360000 6.500363
157.380000 7.020826
157.400000 7.446304
157.420000 7.879148
157.440000 8.263835
157.460000 8.639181
157.480000 8.849917
157.500000 8.938139
157.520000 9.132589
157.540000 9.300644
157.560000 9.468754
157.580000 9.705873
157.600000 9.900660
157.620000 9.971951
157.640000 10.009540
157.660000 9.933694
157.680000 9.661581
157.700000 9.342850
157.720000 9.006055
157.740000 8.709562
157.760000 8.362866
157.780000 7.986904
157.800000 7.808641
157.820000 7.608267
157.840000 7.233355
157.860000 6.844033
157.880000 6.489510
157.900000 6.137577
157.920000 5.681516
157.940000 5.259454
157.960000 4.992746
157.980000 4.780147
158.000000 4.432850
158.020000 4.114119
158.040000 3.795374
158.060000 3.372739
158.080000 2.831621
158.100000 2.255746
158.120000 1.705358
158.140000 1.089728
158.160000 0.626959
158.180000 0.086149
158.200000 -0.414038
158.220000 -0.848142
158.240000 -1.378169
158.260000 -1.798396
158.280000 -2.323537
158.300000 -2.874667
158.320000 -3.203438
158.340000 -3.543468
158.360000 -3.887601
158.380000 -4.124930
158.400000 -4.296513
158.420000 -4.450914
158.440000 -4.753191
158.460000 -5.093234
158.480000 -5.322441
158.500000 -5.667078
158.520000 -6.026517
158.540000 -6.396248
158.560000 -6.712766
158.580000 -6.916683
158.600000 -7.320694
158.620000 -7.707523
158.640000 -8.064987
158.660000 -8.542207
158.680000 -9.004375
158.700000 -9.576524
158.720000 -10.029220
158.740000 -10.011380
158.760000 -9.968226
158.780000 -9.895591
158.800000 -9.761355
158.820000 -9.423691
158.840000 -9.018084
158.860000 -8.871119
158.880000 -8.726800
158.900000 -8.522029
158.920000 -8.203536
158.940000 -7.815853
158.960000 -7.416925
158.980000 -6.901111
159.000000 -6.296950
159.020000 -5.643777
159.040000 -5.064766
159.060000 -4.791056
159.080000 -4.602430
159.100000 -4.262135
159.120000 -3.987094
159.140000 -3.779649
159.160000 -3.518878
159.180000 -3.051712
159.200000 -2.496156
159.220000 -2.126859
159.240000 -1.734849
159.260000 -1.338988
159.280000 -1.099404
159.300000 -0.996718
159.320000 -0.894927
159.340000 -0.668787
159.360000 -0.482514
159.380000 -0.145957
159.400000 0.201971
159.420000 0.533738
159.440000 0.990304
159.460000 1.254968
159.480000 1.507882
159.500000 1.741963
159.520000 1.922088
159.540000 2.291903
159.560000 2.649241
159.580000 2.983851
159.600000 3.511050
159.620000 4.067278
159.640000 4.468614
159.660000 4.828053
159.680000 5.183724
159.700000 5.516416
159.720000 5.818497
159.740000 6.100062
159.760000 6.529966
159.780000 7.016947
159.800000 7.495190
159.820000 7.900139
159.840000 8.307735
159.860000 8.609368
159.880000 8.831699
159.900000 9.004122
159.920000 9.109260
159.940000 9.292536
159.960000 9.517080
159.980000 9.724204
160.000000 9.889975
160.020000 10.008570
160.040000 10.017660
160.060000 9.944421
160.080000 9.676900
160.100000 9.311300
160.120000 9.063735
160.140000 8.720400
160.160000 8.319680
160.180000 8.080516
160.200000 7.853914
160.220000 7.570612
160.240000 7.302363
160.260000 6.862560
160.280000 6.483741
160.300000 6.175695
160.320000 5.663101
160.340000 5.317372
160.360000 5.048130
160.380000 4.718084
160.400000 4.503020
160.420000 4.151634
160.440000 3.736252
160.460000 3.345208
160.480000 2.821216
160.500000 2.254920
160.520000 1.621450
160.540000 1.044483
160.560000 0.584403
160.580000 0.079077
160.600000 -0.446679
160.620000 -0.934585
160.640000 -1.379248
160.660000 -1.816083
160.680000 -2.391999
160.700000 -2.894258
160.720000 -3.236136
160.740000 -3.550680
160.760000 -3.828366
160.780000 -4.132996
160.800000 -4.313387
160.820000 -4.409618
160.840000 -4.751930
160.860000 -5.070829
160.880000 -5.346933
160.900000 -5.691542
160.920000 -5.988400
160.940000 -6.393405
160.960000 -6.709419
160.980000 -6.930588
161.000000 -7.239208
161.020000 -7.655556
161.040000 -8.067675
161.060000 -8.500757
161.080000 -8.985862
161.100000 -9.542986
161.120000 -10.040780
161.140000 -10.056450
161.160000 -9.887119
161.180000 -9.886237
161.200000 -9.785944
161.220000 -9.389145
161.240000 -9.000496
161.260000 -8.846066
161.280000 -8.734768
161.300000 -8.501402
161.320000 -8.158151
161.340000 -7.863744
161.360000 -7.424333
161.380000 -6.861173
161.400000 -6.305282
161.420000 -5.681936
161.440000 -5.096371
161.460000 -4.778481
161.480000 -4.599056
161.500000 -4.346953
161.520000 -3.956469
161.540000 -3.756977
161.560000 -3.541213
161.580000 -3.017529
161.600000 -2.468177
161.620000 -2.098292
161.640000 -1.758123
161.660000 -1.320321
161.680000 -1.061371
161.700000 -1.031642
161.720000 -0.896496
161.740000 -0.659320
161.760000 -0.444747
161.780000 -0.190446
161.800000 0.174748
161.820000 0.594289
161.840000 0.951879
161.860000 1.240110
161.880000 1.519071
161.900000 1.764816
161.920000 1.949451
161.940000 2.285825
161.960000 2.679488
161.980000 3.011312
162.000000 3.488687
162.020000 4.082219
162.040000 4.482211
162.060000 4.767698
162.080000 5.164063
162.100000 5.526106
162.120000 5.808134
162.140000 6.064634
162.160000 6.499985
162.180000 7.069767
162.200000 7.451961
162.220000 7.838132
162.240000 8.301686
162.260000 8.613443
162.280000 8.807921
162.300000 8.952562
162.320000 9.106221
162.340000 9.300812
162.360000 9.464525
162.380000 9.708170
162.400000 9.903937
162.420000 9.943370
162.440000 9.996373
162.460000 9.934016
162.480000 9.655223
162.500000 9.307225
162.520000 9.016193
162.540000 8.754246
162.560000 8.343640
162.580000 8.018482
162.600000 7.858241
162.620000 7.613084
162.640000 7.260213
162.660000 6.836835
162.680000 6.522516
162.700000 6.165094
162.720000 5.669823
162.740000 5.300694
162.760000 5.044881
162.780000 4.752869
162.800000 4.436981
162.820000 4.121443
162.840000 3.780279
162.860000 3.313112
162.880000 2.780172
162.900000 2.240259
162.920000 1.648378
162.940000 1.037887
162.960000 0.538597
162.980000 0.063197
163.000000 -0.443613
163.020000 -0.978247
163.040000 -1.401107
163.060000 -1.832873
163.080000 -2.406675
163.100000 -2.866363
163.120000 -3.238853
163.140000 -3.512198
163.160000 -3.821813
163.180000 -4.141608
163.200000 -4.244938
163.220000 -4.429209
163.240000 -4.775596
163.260000 -5.073168
163.280000 -5.319361
163.300000 -5.651899
163.320000 -6.010483
163.340000 -6.343483
163.360000 -6.643953
163.380000 -6.875163
163.400000 -7.242751
163.420000 -7.620170
163.440000 -8.030006
163.460000 -8.489555
163.480000 -8.946415
163.500000 -9.510022
163.520000 -9.969220
163.540000 -10.058700
163.560000 -9.900534
163.580000 -9.889569
163.600000 -9.788661
163.620000 -9.458252
163.640000 -9.070358
163.660000 -8.863165
163.680000 -8.801676
163.700000 -8.551982
163.720000 -8.208745
163.740000 -7.886710
163.760000 -7.460069
163.780000 -6.947770
163.800000 -6.344939
163.820000 -5.744251
163.840000 -5.159694
163.860000 -4.786743
163.880000 -4.627608
163.900000 -4.348199
163.920000 -3.955951
163.940000 -3.745956
163.960000 -3.528890
163.980000 -3.057677
164.000000 -2.479856
164.020000 -2.081740
164.040000 -1.785513
164.060000 -1.313306
164.080000 -1.043083
164.100000 -0.992097
164.120000 -0.844697
164.140000 -0.632518
164.160000 -0.384196
164.180000 -0.145495
164.200000 0.197840
164.220000 0.657248
164.240000 0.982896
164.260000 1.271464
164.280000 1.589872
164.300000 1.806994
164.320000 1.991447
164.340000 2.291553
164.360000 2.696628
164.380000 3.053448
164.400000 3.445626
164.420000 4.021123
164.440000 4.484956
164.460000 4.759086
164.480000 5.128999
164.500000 5.508560
164.520000 5.811145
164.540000 6.073512
164.560000 6.481206
164.580000 7.006780
164.600000 7.428758
164.620000 7.844378
164.640000 8.258317
164.660000 8.623483
164.680000 8.828702
164.700000 8.969156
164.720000 9.175622
164.740000 9.335652
164.760000 9.485194
164.780000 9.729917
164.800000 9.937601
164.820000 10.008990
164.840000 10.008320
164.860000 9.951548
164.880000 9.732984
164.900000 9.374876
164.920000 9.046973
164.940000 8.757649
164.960000 8.399219
164.980000 8.066149
165.000000 7.836914
165.020000 7.623503
165.040000 7.292855
165.060000 6.868595
165.080000 6.547708
165.100000 6.170415
165.120000 5.729855
165.140000 5.319977
165.160000 5.037669
165.180000 4.764799
165.200000 4.432486
165.220000 4.114777
165.240000 3.758714
165.260000 3.314653
165.280000 2.786334
165.300000 2.230890
165.320000 1.662284
165.340000 1.059649
165.360000 0.541832
165.380000 0.075786
165.400000 -0.427159
165.420000 -0.929459
165.440000 -1.381642
165.460000 -1.828686
165.480000 -2.331841
165.500000 -2.865565
165.520000 -3.259592
165.540000 -3.501640
165.560000 -3.870082
165.580000 -4.161870
165.600000 -4.328034
165.620000 -4.507165
165.640000 -4.768146
165.660000 -5.089607
165.680000 -5.377741
165.700000 -5.661491
165.720000 -6.013171
165.740000 -6.352445
165.760000 -6.642539
165.780000 -6.924427
165.800000 -7.235651
165.820000 -7.625659
165.840000 -8.005724
165.860000 -8.459294
165.880000 -8.942872
165.900000 -9.420134
165.920000 -9.922575
165.940000 -10.018400
165.960000 -9.880327
165.980000 -9.840502
166.000000 -9.711601
166.020000 -9.399886
166.040000 -9.021823
166.060000 -8.806171
166.080000 -8.670072
166.100000 -8.517856
166.120000 -8.174997
166.140000 -7.837922
166.160000 -7.431012
166.180000 -6.892961
166.200000 -6.365776
166.220000 -5.698502
166.240000 -5.127024
166.260000 -4.803505
166.280000 -4.596073
166.300000 -4.300420
166.320000 -3.969184
166.340000 -3.728312
166.360000 -3.535682
166.380000 -3.063572
166.400000 -2.524933
166.420000 -2.163646
166.440000 -1.769535
166.460000 -1.412926
166.480000 -1.137395
166.500000 -1.027161
166.520000 -0.962970
166.540000 -0.682860
166.560000 -0.522522
166.580000 -0.231714
166.600000 0.178165
166.620000 0.511795
166.640000 0.909365
166.660000 1.228305
166.680000 1.524981
166.700000 1.752003
166.720000 1.948092
166.740000 2.262552
166.760000 2.701767
166.780000 3.033759
166.800000 3.466813
166.820000 4.061088
166.840000 4.523381
166.860000 4.807748
166.880000 5.160521
166.900000 5.559308
166.920000 5.826157
166.940000 6.100735
166.960000 6.519743
166.980000 6.981952
167.000000 7.480864
167.020000 7.832741
167.040000 8.243978
167.060000 8.627208
167.080000 8.765267
167.100000 8.999851
167.120000 9.135964
167.140000 9.254293
167.160000 9.506983
167.180000 9.719022
167.200000 9.916260
167.220000 9.980549
167.240000 9.985436
167.260000 10.008560
167.280000 9.753037
167.300000 9.346715
167.320000 9.058372
167.340000 8.808131
167.360000 8.414567
167.380000 8.038632
167.400000 7.827812
167.420000 7.661396
167.440000 7.307615
167.460000 6.855684
167.480000 6.532262
167.500000 6.165416
167.520000 5.737557
167.540000 5.296563
167.560000 5.007940
167.580000 4.765177
167.600000 4.389159
167.620000 4.132309
167.640000 3.758279
167.660000 3.276564
167.680000 2.801457
167.700000 2.246308
167.720000 1.675363
167.740000 1.060377
167.760000 0.534354
167.780000 0.121507
167.800000 -0.369395
167.820000 -0.950367
167.840000 -1.405560
167.860000 -1.770488
167.880000 -2.343659
167.900000 -2.865719
167.920000 -3.266117
167.940000 -3.522785
167.960000 -3.830313
167.980000 -4.189737
168.000000 -4.350482
168.020000 -4.449850
168.040000 -4.767222
168.060000 -5.107966
168.080000 -5.344679
168.100000 -5.662863
168.120000 -5.974970
168.140000 -6.335207
168.160000 -6.655296
168.180000 -6.884055
168.200000 -7.196736
168.220000 -7.578776
168.240000 -7.985672
168.260000 -8.430965
168.280000 -8.883525
168.300000 -9.433592
168.320000 -9.924466
168.340000 -10.040090
168.360000 -9.921665
168.380000 -9.851718
168.400000 -9.801474
168.420000 -9.489493
168.440000 -9.107943
168.460000 -8.906057
168.480000 -8.793176
168.500000 -8.633579
168.520000 -8.283831
168.540000 -7.880310
168.560000 -7.507331
168.580000 -6.993477
168.600000 -6.375663
168.620000 -5.745931
168.640000 -5.139151
168.660000 -4.809260
168.680000 -4.605959
168.700000 -4.280045
168.720000 -3.967084
168.740000 -3.715961
168.760000 -3.485606
168.780000 -3.032527
168.800000 -2.459621
168.820000 -2.058411
168.840000 -1.740198
168.860000 -1.320685
168.880000 -1.016658
168.900000 -0.939262
168.920000 -0.877633
168.940000 -0.642601
168.960000 -0.421697
168.980000 -0.166864
169.000000 0.172003
169.020000 0.539130
169.040000 0.977155
169.060000 1.233066
169.080000 1.518749
169.100000 1.727609
169.120000 1.952461
169.140000 2.285125
169.160000 2.607791
169.180000 3.021716
169.200000 3.443428
169.220000 4.017622
169.240000 4.487897
169.260000 4.764001
169.280000 5.143016
169.300000 5.519651
169.320000 5.810613
169.340000 6.050294
169.360000 6.456028
169.380000 6.984137
169.400000 7.457003
169.420000 7.804916
169.440000 8.211392
169.460000 8.615851
169.480000 8.816463
169.500000 8.991800
169.520000 9.104050
169.540000 9.333972
169.560000 9.554651
169.580000 9.718546
169.600000 9.912269
169.620000 10.004270
169.640000 10.070390
169.660000 9.954181
169.680000 9.697667
169.700000 9.408834
169.720000 9.055263
169.740000 8.761962
169.760000 8.369616
169.780000 8.047244
169.800000 7.886248
169.820000 7.605214
169.840000 7.283613
169.860000 6.905760
169.880000 6.539852
169.900000 6.202581
169.920000 5.718737
169.940000 5.282602
169.960000 5.038999
169.980000 4.706391
170.000000 4.429517
170.020000 4.105339
170.040000 3.675422
170.060000 3.340279
170.080000 2.800295
170.100000 2.220976
170.120000 1.645382
170.140000 1.072546
170.160000 0.633764
170.180000 0.080015
170.200000 -0.449536
170.220000 -0.867565
170.240000 -1.351269
170.260000 -1.779898
170.280000 -2.367213
170.300000 -2.859837
170.320000 -3.159215
170.340000 -3.567190
170.360000 -3.889659
170.380000 -4.141047
170.400000 -4.363365
170.420000 -4.487281
170.440000 -4.811403
170.460000 -5.128019
170.480000 -5.376803
170.500000 -5.704551
170.520000 -5.996437
170.540000 -6.386165
170.560000 -6.706492
170.580000 -6.894641
170.600000 -7.203878
170.620000 -7.612916
170.640000 -7.992519
170.660000 -8.425083
170.680000 -8.828408
170.700000 -9.400292
170.720000 -9.911961
170.740000 -9.981613
170.760000 -9.869432
170.780000 -9.843540
170.800000 -9.791784
170.820000 -9.447063
170.840000 -9.051412
170.860000 -8.889099
170.880000 -8.754947
170.900000 -8.561350
170.920000 -8.217385
170.940000 -7.851813
170.960000 -7.465615
170.980000 -6.931512
171.000000 -6.355540
171.020000 -5.723120
171.040000 -5.149710
171.060000 -4.781645
171.080000 -4.573387
171.100000 -4.296205
171.120000 -3.929513
171.140000 -3.722165
171.160000 -3.492790
171.180000 -3.038590
171.200000 -2.506855
171.220000 -2.115026
171.240000 -1.764466
171.260000 -1.369697
171.280000 -1.078875
171.300000 -1.002767
171.320000 -0.909687
171.340000 -0.658536
171.360000 -0.499262
171.380000 -0.226434
171.400000 0.148408
171.420000 0.495481
171.440000 0.922864
171.460000 1.200032
171.480000 1.502645
171.500000 1.753249
171.520000 1.925897
171.540000 2.271612
171.560000 2.660682
171.580000 3.008077
171.600000 3.448791
171.620000 4.028110
171.640000 4.478263
171.660000 4.781281
171.680000 5.161935
171.700000 5.521569
171.720000 5.846994
171.740000 6.077223
171.760000 6.488824
171.780000 7.021554
171.800000 7.438546
171.820000 7.819298
171.840000 8.266327
171.860000 8.633481
171.880000 8.849805
171.900000 9.010732
171.920000 9.162234
171.940000 9.384734
171.960000 9.561176
171.980000 9.745377
172.000000 9.952668
172.020000 10.027780
172.040000 10.033450
172.060000 9.972525
172.080000 9.734202
172.100000 9.369498
172.120000 9.073383
172.140000 8.766611
172.160000 8.365331
172.180000 8.060212
172.200000 7.807465
172.220000 7.575933
172.240000 7.279174
172.260000 6.825129
172.280000 6.507042
172.300000 6.164478
172.320000 5.676307
172.340000 5.297908
172.360000 4.993180
172.380000 4.704193
172.400000 4.404213
172.420000 4.063917
172.440000 3.723537
172.460000 3.303450
172.480000 2.787538
172.500000 2.250747
172.520000 1.681818
172.540000 1.092767
172.560000 0.601136
172.580000 0.129839
172.600000 -0.375612
172.620000 -0.876051
172.640000 -1.355372
172.660000 -1.769633
172.680000 -2.286288
172.700000 -2.806919
172.720000 -3.230815
172.740000 -3.522421
172.760000 -3.830215
172.780000 -4.175062
172.800000 -4.338257
172.820000 -4.532147
172.840000 -4.793436
172.860000 -5.093570
172.880000 -5.388453
172.900000 -5.664740
172.920000 -5.994505
172.940000 -6.349308
172.960000 -6.640676
172.980000 -6.911193
173.000000 -7.209787
173.020000 -7.590553
173.040000 -7.965633
173.060000 -8.434802
173.080000 -8.873975
173.100000 -9.380589
173.120000 -9.890592
173.140000 -10.039590
173.160000 -9.928905
173.180000 -9.886265
173.200000 -9.850850
173.220000 -9.538071
173.240000 -9.183450
173.260000 -8.912078
173.280000 -8.788849
173.300000 -8.622405
173.320000 -8.227272
173.340000 -7.894776
173.360000 -7.473106
173.380000 -6.956060
173.400000 -6.393671
173.420000 -5.750300
173.440000 -5.188107
173.460000 -4.749130
173.480000 -4.546795
173.500000 -4.266196
173.520000 -3.919220
173.540000 -3.676052
173.560000 -3.432071
173.580000 -3.040383
173.600000 -2.508059
173.620000 -2.072680
173.640000 -1.746234
173.660000 -1.348818
173.680000 -1.041556
173.700000 -0.957452
173.720000 -0.817825
173.740000 -0.636705
173.760000 -0.449200
173.780000 -0.184242
173.800000 0.130777
173.820000 0.523138
173.840000 0.897336
173.860000 1.186071
173.880000 1.523496
173.900000 1.771482
173.920000 1.946090
173.940000 2.262636
173.960000 2.651397
173.980000 3.007811
174.000000 3.432337
174.020000 3.936220
174.040000 4.440481
174.060000 4.771465
174.080000 5.099984
174.100000 5.473874
174.120000 5.788978
174.140000 6.081410
174.160000 6.431578
174.180000 6.930042
174.200000 7.375811
174.220000 7.815349
174.240000 8.247409
174.260000 8.582845
174.280000 8.854637
174.300000 9.045684
174.320000 9.241424
174.340000 9.386708
174.360000 9.556289
174.380000 9.800102
174.400000 9.998193
174.420000 10.056000
174.440000 10.034850
174.460000 10.016230
174.480000 9.811487
174.500000 9.415121
174.520000 9.094318
174.540000 8.787686
174.560000 8.423319
174.580000 8.083891
174.600000 7.824913
174.620000 7.581226
174.640000 7.300809
174.660000 6.850251
174.680000 6.492087
174.700000 6.149368
174.720000 5.651885
174.740000 5.279465
174.760000 4.971965
174.780000 4.619528
174.800000 4.336198
174.820000 4.041329
174.840000 3.674917
174.860000 3.276368
174.880000 2.759391
174.900000 2.234601
174.920000 1.690262
174.940000 1.079057
174.960000 0.576267
174.980000 0.130805
175.000000 -0.401981
175.020000 -0.883696
175.040000 -1.343539
175.060000 -1.783315
175.080000 -2.273685
175.100000 -2.824983
175.120000 -3.226376
175.140000 -3.493784
175.160000 -3.885906
175.180000 -4.204917
175.200000 -4.372313
175.220000 -4.561499
175.240000 -4.802244
175.260000 -5.134306
175.280000 -5.380527
175.300000 -5.666826
175.320000 -5.995569
175.340000 -6.332154
175.360000 -6.666190
175.380000 -6.902581
175.400000 -7.199131
175.420000 -7.595678
175.440000 -7.937668
175.460000 -8.423347
175.480000 -8.850029
175.500000 -9.305741
175.520000 -9.890886
175.540000 -10.027500
175.560000 -9.908250
175.580000 -9.881363
175.600000 -9.775288
175.620000 -9.541250
175.640000 -9.123977
175.660000 -8.796621
175.680000 -8.757383
175.700000 -8.546955
175.720000 -8.137132
175.740000 -7.810742
175.760000 -7.432273
175.780000 -6.949983
175.800000 -6.374584
175.820000 -5.728427
175.840000 -5.171779
175.860000 -4.782248
175.880000 -4.542790
175.900000 -4.313569
175.920000 -3.970893
175.940000 -3.687815
175.960000 -3.512366
175.980000 -3.135956
176.000000 -2.561440
176.020000 -2.123288
176.040000 -1.820060
176.060000 -1.448046
176.080000 -1.095609
176.100000 -0.976917
176.120000 -0.926001
176.140000 -0.725248
176.160000 -0.470065
176.180000 -0.221323
176.200000 0.092884
176.220000 0.499038
176.240000 0.948546
176.260000 1.236791
176.280000 1.532150
176.300000 1.841919
176.320000 2.017003
176.340000 2.306817
176.360000 2.723851
176.380000 3.052692
176.400000 3.505211
176.420000 4.023503
176.440000 4.502096
176.460000 4.897341
176.480000 5.145733
176.500000 5.527479
176.520000 5.896215
176.540000 6.096141
176.560000 6.446744
176.580000 6.961549
176.600000 7.446458
176.620000 7.808319
176.640000 8.197795
176.660000 8.601666
176.680000 8.879885
176.700000 8.998815
176.720000 9.127716
176.740000 9.338075
176.760000 9.541880
176.780000 9.717832
176.800000 9.885354
176.820000 9.992830
176.840000 10.032960
176.860000 9.963381
176.880000 9.755921
176.900000 9.391736
176.920000 9.090089
176.940000 8.779312
176.960000 8.406515
176.980000 8.058139
177.000000 7.792859
177.020000 7.637100
177.040000 7.314294
177.060000 6.867167
177.080000 6.487101
177.100000 6.153653
177.120000 5.741940
177.140000 5.243238
177.160000 4.913809
177.180000 4.694629
177.200000 4.408022
177.220000 4.050558
177.240000 3.672649
177.260000 3.327830
177.280000 2.859879
177.300000 2.307321
177.320000 1.688120
177.340000 1.140784
177.360000 0.653873
177.380000 0.149318
177.400000 -0.373190
177.420000 -0.866920
177.440000 -1.302523
177.460000 -1.751709
177.480000 -2.268797
177.500000 -2.838818
177.520000 -3.242045
177.540000 -3.521679
177.560000 -3.880613
177.580000 -4.239057
177.600000 -4.428915
177.620000 -4.546361
177.640000 -4.824160
177.660000 -5.130441
177.680000 -5.413043
177.700000 -5.687439
177.720000 -5.940088
177.740000 -6.395309
177.760000 -6.696662
177.780000 -6.879434
177.800000 -7.204088
177.820000 -7.609233
177.840000 -7.971290
177.860000 -8.396334
177.880000 -8.804182
177.900000 -9.388235
177.920000 -9.929969
177.940000 -9.996905
177.960000 -9.925194
177.980000 -9.918668
178.000000 -9.822129
178.020000 -9.509532
178.040000 -9.099163
178.060000 -8.888735
178.080000 -8.734824
178.100000 -8.529436
178.120000 -8.215243
178.140000 -7.827210
178.160000 -7.479814
178.180000 -6.948666
178.200000 -6.405364
178.220000 -5.770213
178.240000 -5.124056
178.260000 -4.793548
178.280000 -4.575152
178.300000 -4.280269
178.320000 -3.949761
178.340000 -3.700460
178.360000 -3.516609
178.380000 -3.091467
178.400000 -2.503004
178.420000 -2.145946
178.440000 -1.791045
178.460000 -1.354126
178.480000 -1.095189
178.500000 -0.963362
178.520000 -0.905052
178.540000 -0.688349
178.560000 -0.434931
178.580000 -0.218999
178.600000 0.141434
178.620000 0.553119
178.640000 0.955856
178.660000 1.284011
178.680000 1.581064
178.700000 1.832719
178.720000 2.000703
178.740000 2.310667
178.760000 2.694178
178.780000 3.012110
178.800000 3.457725
178.820000 4.000286
178.840000 4.488345
178.860000 4.815744
178.880000 5.141560
178.900000 5.523446
178.920000 5.842428
178.940000 6.063206
178.960000 6.446366
178.980000 6.960555
179.000000 7.412052
179.020000 7.852780
179.040000 8.235842
179.060000 8.618162
179.080000 8.875698
179.100000 9.034818
179.120000 9.186040
179.140000 9.340301
179.160000 9.548699
179.180000 9.752798
179.200000 9.940864
179.220000 10.024040
179.240000 10.077210
179.260000 10.012910
179.280000 9.785468
179.300000 9.435370
179.320000 9.050642
179.340000 8.789017
179.360000 8.378312
179.380000 8.055885
179.400000 7.828484
179.420000 7.547030
179.440000 7.312348
179.460000 6.883145
179.480000 6.472020
179.500000 6.124106
179.520000 5.674948
179.540000 5.244093
179.560000 4.918010
179.580000 4.614137
179.600000 4.344348
179.620000 4.072137
179.640000 3.662496
179.660000 3.290371
179.680000 2.800435
179.700000 2.272508
179.720000 1.713214
179.740000 1.081452
179.760000 0.627953
179.780000 0.140090
179.800000 -0.343727
179.820000 -0.826689
179.840000 -1.327645
179.860000 -1.707290
179.880000 -2.260661
179.900000 -2.828232
179.920000 -3.236416
179.940000 -3.576250
179.960000 -3.875418
179.980000 -4.206093