90 Deg Fixed Reg 4 13-Apr-2018
Time(s) LoadCell(N)
0.000000 -0.285907
0.020000 -0.244975
0.040000 -0.199562
0.060000 -0.222205
0.080000 -0.211073
0.100000 -0.204981
0.120000 -0.192266
0.140000 -0.135665
0.160000 -0.164960
0.180000 -0.173026
0.200000 -0.106370
0.220000 -0.121297
0.240000 -0.124168
0.260000 -0.111789
0.280000 -0.106874
0.300000 -0.067636
0.320000 -0.093458
0.340000 -0.105459
0.360000 -0.082676
0.380000 -0.064415
0.400000 -0.093935
0.420000 -0.093879
0.440000 -0.078531
0.460000 -0.102575
0.480000 -0.073126
0.500000 -0.120219
0.520000 -0.118020
0.540000 -0.087129
0.560000 -0.142372
0.580000 -0.101146
0.600000 -0.145817
0.620000 -0.195823
0.640000 -0.135455
0.660000 -0.173600
0.680000 -0.191874
0.700000 -0.186721
0.720000 -0.219825
0.740000 -0.188289
0.760000 -0.247356
0.780000 -0.270419
0.800000 -0.224236
0.820000 -0.273150
0.840000 -0.283904
0.860000 -0.287335
0.880000 -0.284086
0.900000 -0.270937
0.920000 -0.345239
0.940000 -0.289002
0.960000 -0.293426
0.980000 -0.334890
1.000000 -0.293258
1.020000 -0.335143
1.040000 -0.291676
1.060000 -0.291480
1.080000 -0.327651
1.100000 -0.265112
1.120000 -0.271105
1.140000 -0.291018
1.160000 -0.232666
1.180000 -0.288091
1.200000 -0.241964
1.220000 -0.216674
1.240000 -0.250870
1.260000 -0.197546
1.280000 -0.231350
1.300000 -0.178557
1.320000 -0.143647
1.340000 -0.208230
1.360000 -0.141238
1.380000 -0.137373
1.400000 -0.135567
1.420000 -0.121325
1.440000 -0.133914
1.460000 -0.090924
1.480000 -0.095363
1.500000 -0.090784
1.520000 -0.097057
1.540000 -0.079987
1.560000 -0.060242
1.580000 -0.083264
1.600000 -0.089047
1.620000 -0.083866
1.640000 -0.100404
1.660000 -0.067146
1.680000 -0.102070
1.700000 -0.114337
1.720000 -0.097757
1.740000 -0.113301
1.760000 -0.111901
1.780000 -0.161585
1.800000 -0.166962
1.820000 -0.113091
1.840000 -0.181246
1.860000 -0.192168
1.880000 -0.175490
1.900000 -0.208944
1.920000 -0.175294
1.940000 -0.252579
1.960000 -0.235439
1.980000 -0.220959
2.000000 -0.269159
2.020000 -0.259174
2.040000 -0.281748
2.060000 -0.280936
2.080000 -0.283974
2.100000 -0.306842
2.120000 -0.290626
2.140000 -0.314964
2.160000 -0.324108
2.180000 -0.294575
2.200000 -0.324542
2.220000 -0.325732
2.240000 -0.310203
2.260000 -0.301436
2.280000 -0.306296
2.300000 -0.301507
2.320000 -0.296731
2.340000 -0.259776
2.360000 -0.280627
2.380000 -0.264215
2.400000 -0.233044
2.420000 -0.222275
2.440000 -0.215092
2.460000 -0.217864
2.480000 -0.176456
2.500000 -0.150102
2.520000 -0.158602
2.540000 -0.147819
2.560000 -0.120835
2.580000 -0.114814
2.600000 -0.089944
2.620000 -0.114421
2.640000 -0.099438
2.660000 -0.039574
2.680000 -0.099438
2.700000 -0.079819
2.720000 -0.057120
2.740000 -0.087857
2.760000 -0.025150
2.780000 -0.101412
2.800000 -0.069849
2.820000 -0.040988
2.840000 -0.099578
2.860000 -0.057568
2.880000 -0.080701
2.900000 -0.108134
2.920000 -0.078769
2.940000 -0.094327
2.960000 -0.137275
2.980000 -0.094327
3.000000 -0.144851
3.020000 -0.125232
3.040000 -0.132822
3.060000 -0.186567
3.080000 -0.157174
3.100000 -0.180279
3.120000 -0.159722
3.140000 -0.219559
3.160000 -0.251444
3.180000 -0.166206
3.200000 -0.250660
3.220000 -0.223676
3.240000 -0.254273
3.260000 -0.277169
3.280000 -0.195921
3.300000 -0.306002
3.320000 -0.288763
3.340000 -0.238687
3.360000 -0.301619
3.380000 -0.277141
3.400000 -0.288511
3.420000 -0.328463
3.440000 -0.244093
3.460000 -0.300358
3.480000 -0.296773
3.500000 -0.262059
3.520000 -0.310357
3.540000 -0.244681
3.560000 -0.264020
3.580000 -0.299322
3.600000 -0.237231
3.620000 -0.241362
3.640000 -0.222962
3.660000 -0.255688
3.680000 -0.206368
3.700000 -0.161725
3.720000 -0.227121
3.740000 -0.180069
3.760000 -0.164035
3.780000 -0.164764
3.800000 -0.127921
3.820000 -0.161515
3.840000 -0.125568
3.860000 -0.081962
3.880000 -0.144949
3.900000 -0.080673
3.920000 -0.098234
3.940000 -0.109758
3.960000 -0.061279
3.980000 -0.106594
4.000000 -0.091918
4.020000 -0.087073
4.040000 -0.084566
4.060000 -0.091302
4.080000 -0.136855
4.100000 -0.101749
4.120000 -0.102897
4.140000 -0.116242
4.160000 -0.147007
4.180000 -0.158238
4.200000 -0.107560
4.220000 -0.165142
4.240000 -0.226000
4.260000 -0.173614
4.280000 -0.194507
4.300000 -0.216534
4.320000 -0.232400
4.340000 -0.284478
4.360000 -0.244233
4.380000 -0.280039
4.400000 -0.331320
4.420000 -0.320075
4.440000 -0.355013
4.460000 -0.334919
4.480000 -0.365922
4.500000 -0.395007
4.520000 -0.414416
4.540000 -0.399880
4.560000 -0.382642
4.580000 -0.450124
4.600000 -0.461145
4.620000 -0.407918
4.640000 -0.430548
4.660000 -0.421515
4.680000 -0.463245
4.700000 -0.418911
4.720000 -0.372952
4.740000 -0.439734
4.760000 -0.418309
4.780000 -0.353585
4.800000 -0.368653
4.820000 -0.335801
4.840000 -0.350910
4.860000 -0.327231
4.880000 -0.267072
4.900000 -0.292250
4.920000 -0.260477
4.940000 -0.250702
4.960000 -0.208944
4.980000 -0.185307
5.000000 -0.194563
5.020000 -0.157202
5.040000 -0.160731
5.060000 -0.122586
5.080000 -0.091862
5.100000 -0.141910
5.120000 -0.091862
5.140000 -0.075030
5.160000 -0.072551
5.180000 -0.069037
5.200000 -0.084594
5.220000 -0.023008
5.240000 -0.037781
5.260000 -0.077047
5.280000 -0.039840
5.300000 -0.030079
5.320000 -0.039055
5.340000 -0.070563
5.360000 -0.074148
5.380000 -0.013499
5.400000 -0.056083
5.420000 -0.099522
5.440000 -0.069835
5.460000 -0.023820
5.480000 -0.071921
5.500000 -0.088501
5.520000 -0.076038
5.540000 -0.054823
5.560000 -0.065872
5.580000 -0.088963
5.600000 -0.067580
5.620000 -0.064093
5.640000 -0.055173
5.660000 -0.065942
5.680000 -0.043817
5.700000 -0.070773
5.720000 -0.067440
5.740000 -0.007954
5.760000 -0.064598
5.780000 -0.057316
5.800000 -0.037949
5.820000 -0.009508
5.840000 -0.014788
5.860000 -0.070283
5.880000 -0.004327
5.900000 0.011623
5.920000 -0.014746
5.940000 -0.066306
5.960000 -0.023792
5.980000 0.038439
6.000000 -0.039167
6.020000 -0.044923
6.040000 -0.000056
6.060000 -0.019689
6.080000 -0.019675
6.100000 -0.054697
6.120000 -0.039125
6.140000 -0.008920
6.160000 -0.073378
6.180000 -0.063015
6.200000 -0.049068
6.220000 -0.102785
6.240000 -0.070269
6.260000 -0.096469
6.280000 -0.137877
6.300000 -0.118483
6.320000 -0.161235
6.340000 -0.163265
6.360000 -0.191944
6.380000 -0.232204
6.400000 -0.222976
6.420000 -0.246039
6.440000 -0.315860
6.460000 -0.304321
6.480000 -0.312079
6.500000 -0.363471
6.520000 -0.409514
6.540000 -0.429119
6.560000 -0.427551
6.580000 -0.484965
6.600000 -0.537001
6.620000 -0.540166
6.640000 -0.560835
6.660000 -0.624116
6.680000 -0.661239
6.700000 -0.672007
6.720000 -0.731690
6.740000 -0.748564
6.760000 -0.774848
6.780000 -0.835665
6.800000 -0.849752
6.820000 -0.852595
6.840000 -0.893289
6.860000 -0.924278
6.880000 -0.941586
6.900000 -0.936909
6.920000 -0.942847
6.940000 -0.945059
6.960000 -0.979409
6.980000 -0.918453
7.000000 -0.886525
7.020000 -0.930622
7.040000 -0.884285
7.060000 -0.834531
7.080000 -0.822250
7.100000 -0.751309
7.120000 -0.752359
7.140000 -0.683252
7.160000 -0.582246
7.180000 -0.573830
7.200000 -0.480119
7.220000 -0.419723
7.240000 -0.356120
7.260000 -0.251850
7.280000 -0.205877
7.300000 -0.133648
7.320000 -0.021621
7.340000 0.061811
7.360000 0.135035
7.380000 0.221015
7.400000 0.307010
7.420000 0.391688
7.440000 0.486883
7.460000 0.544927
7.480000 0.625418
7.500000 0.747948
7.520000 0.794985
7.540000 0.845621
7.560000 0.956430
7.580000 1.004335
7.600000 1.073806
7.620000 1.136429
7.640000 1.160739
7.660000 1.244745
7.680000 1.276603
7.700000 1.281644
7.720000 1.333050
7.740000 1.349770
7.760000 1.368829
7.780000 1.356506
7.800000 1.359517
7.820000 1.376475
7.840000 1.332364
7.860000 1.318515
7.880000 1.261507
7.900000 1.245725
7.920000 1.202567
7.940000 1.093509
7.960000 1.054103
7.980000 0.972170
8.000000 0.905654
8.020000 0.802729
8.040000 0.666182
8.060000 0.597075
8.080000 0.487499
8.100000 0.340534
8.120000 0.195907
8.140000 0.052919
8.160000 -0.035681
8.180000 -0.226728
8.200000 -0.389294
8.220000 -0.526751
8.240000 -0.711007
8.260000 -0.818819
8.280000 -1.043839
8.300000 -1.206376
8.320000 -1.320251
8.340000 -1.515388
8.360000 -1.668151
8.380000 -1.865066
8.400000 -1.976743
8.420000 -2.079738
8.440000 -2.296090
8.460000 -2.386062
8.480000 -2.511224
8.500000 -2.649003
8.520000 -2.694122
8.540000 -2.868450
8.560000 -2.928230
8.580000 -2.917153
8.600000 -3.093596
8.620000 -3.069398
8.640000 -3.099253
8.660000 -3.173429
8.680000 -3.086916
8.700000 -3.134570
8.720000 -3.085852
8.740000 -3.012040
8.760000 -3.001916
8.780000 -2.839253
8.800000 -2.780634
8.820000 -2.651705
8.840000 -2.466917
8.860000 -2.372394
8.880000 -2.160845
8.900000 -1.983899
8.920000 -1.761245
8.940000 -1.544641
8.960000 -1.326581
8.980000 -1.055392
9.000000 -0.828481
9.020000 -0.547378
9.040000 -0.256346
9.060000 -0.011497
9.080000 0.328897
9.100000 0.614636
9.120000 0.868769
9.140000 1.219791
9.160000 1.497100
9.180000 1.810803
9.200000 2.136844
9.220000 2.394814
9.240000 2.710772
9.260000 3.013440
9.280000 3.281507
9.300000 3.534254
9.320000 3.782071
9.340000 4.056425
9.360000 4.244742
9.380000 4.418342
9.400000 4.593566
9.420000 4.723630
9.440000 4.855513
9.460000 4.903167
9.480000 4.954881
9.500000 5.014073
9.520000 4.993110
9.540000 4.984106
9.560000 4.915938
9.580000 4.806838
9.600000 4.710746
9.620000 4.512375
9.640000 4.301820
9.660000 4.079111
9.680000 3.803356
9.700000 3.512310
9.720000 3.193370
9.740000 2.795618
9.760000 2.430214
9.780000 2.025223
9.800000 1.578445
9.820000 1.093957
9.840000 0.610001
9.860000 0.116746
9.880000 -0.411013
9.900000 -0.936349
9.920000 -1.514702
9.940000 -2.027155
9.960000 -2.568749
9.980000 -3.157311
10.000000 -3.611496
10.020000 -4.196991
10.040000 -4.688971
10.060000 -5.113581
10.080000 -5.631496
10.100000 -5.998300
10.120000 -6.439784
10.140000 -6.738714
10.160000 -7.014090
10.180000 -7.367087
10.200000 -7.485681
10.220000 -7.690901
10.240000 -7.824633
10.260000 -7.858143
10.280000 -7.919380
10.300000 -7.843481
10.320000 -7.777386
10.340000 -7.666031
10.360000 -7.421770
10.380000 -7.217111
10.400000 -6.941973
10.420000 -6.567047
10.440000 -6.214988
10.460000 -5.756504
10.480000 -5.339638
10.500000 -4.816528
10.520000 -4.179207
10.540000 -3.752552
10.560000 -3.043128
10.580000 -2.399113
10.600000 -1.838978
10.620000 -1.064662
10.640000 -0.451833
10.660000 0.228899
10.680000 1.008284
10.700000 1.592127
10.720000 2.357061
10.740000 3.048029
10.760000 3.652148
10.780000 4.376920
10.800000 4.987579
10.820000 5.577233
10.840000 6.187962
10.860000 6.693021
10.880000 7.248128
10.900000 7.685033
10.920000 8.100023
10.940000 8.552514
10.960000 8.797489
10.980000 9.108924
11.000000 9.320571
11.020000 9.442484
11.040000 9.527050
11.060000 9.501648
11.080000 9.498749
11.100000 9.369302
11.120000 9.136986
11.140000 8.938279
11.160000 8.658715
11.180000 8.237984
11.200000 7.802760
11.220000 7.309295
11.240000 6.797710
11.260000 6.202735
11.280000 5.502567
11.300000 4.883506
11.320000 4.224171
11.340000 3.476896
11.360000 2.762402
11.380000 2.024397
11.400000 1.279432
11.420000 0.479293
11.440000 -0.302767
11.460000 -1.128447
11.480000 -1.947742
11.500000 -2.721414
11.520000 -3.545456
11.540000 -4.320977
11.560000 -5.144753
11.580000 -5.917472
11.600000 -6.628591
11.620000 -7.366597
11.640000 -8.078682
11.660000 -8.692057
11.680000 -9.270368
11.700000 -9.775232
11.720000 -10.214070
11.740000 -10.580330
11.760000 -10.810920
11.780000 -11.042730
11.800000 -11.187720
11.820000 -11.211590
11.840000 -11.206500
11.860000 -11.083340
11.880000 -10.866540
11.900000 -10.567040
11.920000 -10.181670
11.940000 -9.747715
11.960000 -9.243902
11.980000 -8.675099
12.000000 -8.081903
12.020000 -7.461988
12.040000 -6.776635
12.060000 -6.074240
12.080000 -5.285347
12.100000 -4.514139
12.120000 -3.629406
12.140000 -2.748329
12.160000 -1.888242
12.180000 -0.972128
12.200000 -0.106230
12.220000 0.768813
12.240000 1.588850
12.260000 2.415413
12.280000 3.281101
12.300000 4.090089
12.320000 4.873003
12.340000 5.688377
12.360000 6.462329
12.380000 7.115376
12.400000 7.792495
12.420000 8.382023
12.440000 8.902122
12.460000 9.418664
12.480000 9.843722
12.500000 10.263870
12.520000 10.652360
12.540000 10.938110
12.560000 11.162870
12.580000 11.362160
12.600000 11.373060
12.620000 11.328540
12.640000 11.261750
12.660000 11.007780
12.680000 10.790460
12.700000 10.467190
12.720000 10.097550
12.740000 9.656063
12.760000 9.124229
12.780000 8.555931
12.800000 7.937990
12.820000 7.218539
12.840000 6.465186
12.860000 5.706316
12.880000 4.940654
12.900000 4.136454
12.920000 3.326794
12.940000 2.552170
12.960000 1.729780
12.980000 0.867579
13.000000 0.024268
13.020000 -0.920455
13.040000 -1.819709
13.060000 -2.778744
13.080000 -3.753700
13.100000 -4.663037
13.120000 -5.625712
13.140000 -6.479890
13.160000 -7.350451
13.180000 -8.226586
13.200000 -9.034300
13.220000 -9.758540
13.240000 -10.438870
13.260000 -11.064090
13.280000 -11.556920
13.300000 -11.956650
13.320000 -12.216550
13.340000 -12.386660
13.360000 -12.496250
13.380000 -12.451770
13.400000 -12.328760
13.420000 -12.136890
13.440000 -11.839080
13.460000 -11.452090
13.480000 -11.002010
13.500000 -10.398580
13.520000 -9.755123
13.540000 -9.073971
13.560000 -8.304500
13.580000 -7.558541
13.600000 -6.711295
13.620000 -5.901663
13.640000 -5.031241
13.660000 -4.101516
13.680000 -3.179380
13.700000 -2.177033
13.720000 -1.249688
13.740000 -0.266162
13.760000 0.721397
13.780000 1.592953
13.800000 2.535492
13.820000 3.370064
13.840000 4.187259
13.860000 5.060130
13.880000 5.810137
13.900000 6.543157
13.920000 7.271206
13.940000 7.909101
13.960000 8.541997
13.980000 9.036680
14.000000 9.449514
14.020000 9.874194
14.040000 10.173990
14.060000 10.434370
14.080000 10.641170
14.100000 10.815490
14.120000 10.934070
14.140000 10.925870
14.160000 10.874030
14.180000 10.737820
14.200000 10.491520
14.220000 10.172050
14.240000 9.827072
14.260000 9.446615
14.280000 8.947339
14.300000 8.401278
14.320000 7.918063
14.340000 7.364524
14.360000 6.721392
14.380000 6.058752
14.400000 5.429371
14.420000 4.797413
14.440000 4.034594
14.460000 3.332549
14.480000 2.739983
14.500000 2.058719
14.520000 1.341466
14.540000 0.624396
14.560000 -0.038719
14.580000 -0.754347
14.600000 -1.588276
14.620000 -2.366429
14.640000 -3.140927
14.660000 -3.928882
14.680000 -4.695945
14.700000 -5.432158
14.720000 -6.124694
14.740000 -6.841569
14.760000 -7.518323
14.780000 -8.043225
14.800000 -8.647835
14.820000 -9.160610
14.840000 -9.502824
14.860000 -9.854015
14.880000 -10.081860
14.900000 -10.233070
14.920000 -10.304980
14.940000 -10.294040
14.960000 -10.318840
14.980000 -10.234330
15.000000 -10.005590
15.020000 -9.841426
15.040000 -9.578821
15.060000 -9.207787
15.080000 -8.822961
15.100000 -8.396096
15.120000 -7.978838
15.140000 -7.396760
15.160000 -6.824162
15.180000 -6.337938
15.200000 -5.710965
15.220000 -5.024044
15.240000 -4.351392
15.260000 -3.651084
15.280000 -2.905376
15.300000 -2.127139
15.320000 -1.355078
15.340000 -0.633582
15.360000 0.102084
15.380000 0.878347
15.400000 1.551013
15.420000 2.303890
15.440000 3.022501
15.460000 3.714897
15.480000 4.395433
15.500000 5.092800
15.520000 5.759753
15.540000 6.320545
15.560000 6.842185
15.580000 7.409419
15.600000 7.873687
15.620000 8.242045
15.640000 8.659122
15.660000 9.066059
15.680000 9.399914
15.700000 9.656343
15.720000 9.855905
15.740000 10.060340
15.760000 10.126730
15.780000 10.063410
15.800000 10.021000
15.820000 9.897271
15.840000 9.718378
15.860000 9.466822
15.880000 9.185242
15.900000 8.854216
15.920000 8.446172
15.940000 8.005696
15.960000 7.528210
15.980000 6.947154
16.000000 6.340248
16.020000 5.776683
16.040000 5.152931
16.060000 4.463363
16.080000 3.822051
16.100000 3.157311
16.120000 2.478596
16.140000 1.726223
16.160000 0.935159
16.180000 0.195291
16.200000 -0.587749
16.220000 -1.487186
16.240000 -2.347090
16.260000 -3.170040
16.280000 -4.077430
16.300000 -4.897411
16.320000 -5.784020
16.340000 -6.637372
16.360000 -7.428072
16.380000 -8.200497
16.400000 -8.889589
16.420000 -9.540942
16.440000 -10.045850
16.460000 -10.497790
16.480000 -10.877410
16.500000 -11.119680
16.520000 -11.334040
16.540000 -11.436060
16.560000 -11.479500
16.580000 -11.493920
16.600000 -11.313150
16.620000 -11.094760
16.640000 -10.847160
16.660000 -10.412740
16.680000 -9.922925
16.700000 -9.455423
16.720000 -8.869592
16.740000 -8.289615
16.760000 -7.601825
16.780000 -6.899949
16.800000 -6.229397
16.820000 -5.385933
16.840000 -4.540171
16.860000 -3.688711
16.880000 -2.791501
16.900000 -1.892513
16.920000 -0.986229
16.940000 -0.088571
16.960000 0.755174
16.980000 1.568601
17.000000 2.432623
17.020000 3.225591
17.040000 4.030491
17.060000 4.834872
17.080000 5.542546
17.100000 6.275315
17.120000 6.949241
17.140000 7.518925
17.160000 8.032429
17.180000 8.532909
17.200000 8.928140
17.220000 9.331227
17.240000 9.645925
17.260000 9.912185
17.280000 10.217820
17.300000 10.366430
17.320000 10.514200
17.340000 10.497540
17.360000 10.492780
17.380000 10.384870
17.400000 10.171220
17.420000 9.977959
17.440000 9.643782
17.460000 9.364373
17.480000 8.979154
17.500000 8.496066
17.520000 8.012838
17.540000 7.421490
17.560000 6.871088
17.580000 6.238374
17.600000 5.548638
17.620000 4.899316
17.640000 4.296779
17.660000 3.623539
17.680000 2.948787
17.700000 2.275029
17.720000 1.594157
17.740000 0.958516
17.760000 0.140006
17.780000 -0.611695
17.800000 -1.316596
17.820000 -2.065693
17.840000 -2.813808
17.860000 -3.594370
17.880000 -4.291696
17.900000 -5.039111
17.920000 -5.828579
17.940000 -6.618103
17.960000 -7.381496
17.980000 -8.080390
18.000000 -8.779018
18.020000 -9.361979
18.040000 -9.868704
18.060000 -10.251700
18.080000 -10.562610
18.100000 -10.801930
18.120000 -10.934120
18.140000 -11.038590
18.160000 -11.023600
18.180000 -10.981920
18.200000 -10.856000
18.220000 -10.609370
18.240000 -10.306020
18.260000 -9.906303
18.280000 -9.429013
18.300000 -8.912064
18.320000 -8.344186
18.340000 -7.764769
18.360000 -7.247302
18.380000 -6.529434
18.400000 -5.833130
18.420000 -5.153757
18.440000 -4.323483
18.460000 -3.541199
18.480000 -2.639803
18.500000 -1.781214
18.520000 -0.957368
18.540000 -0.110220
18.560000 0.704621
18.580000 1.544403
18.600000 2.284047
18.620000 3.098889
18.640000 3.884002
18.660000 4.654971
18.680000 5.417846
18.700000 6.141764
18.720000 6.802807
18.740000 7.396928
18.760000 7.956125
18.780000 8.424873
18.800000 8.848195
18.820000 9.244840
18.840000 9.647759
18.860000 9.946003
18.880000 10.185780
18.900000 10.437890
18.920000 10.573610
18.940000 10.639720
18.960000 10.495780
18.980000 10.361520
19.000000 10.276780
19.020000 9.992326
19.040000 9.616126
19.060000 9.277902
19.080000 8.967616
19.100000 8.491011
19.120000 7.871922
19.140000 7.365126
19.160000 6.830226
19.180000 6.167433
19.200000 5.484208
19.220000 4.844353
19.240000 4.269262
19.260000 3.637570
19.280000 2.896372
19.300000 2.284915
19.320000 1.585769
19.340000 0.846364
19.360000 0.051392
19.380000 -0.800782
19.400000 -1.599044
19.420000 -2.486032
19.440000 -3.307525
19.460000 -4.113713
19.480000 -4.942166
19.500000 -5.703403
19.520000 -6.435947
19.540000 -7.234265
19.560000 -7.930008
19.580000 -8.583069
19.600000 -9.126624
19.620000 -9.610300
19.640000 -10.131200
19.660000 -10.325280
19.680000 -10.563240
19.700000 -10.767520
19.720000 -10.811100
19.740000 -10.915670
19.760000 -10.798510
19.780000 -10.751460
19.800000 -10.577750
19.820000 -10.267000
19.840000 -9.948187
19.860000 -9.575026
19.880000 -9.126106
19.900000 -8.600517
19.920000 -8.118242
19.940000 -7.509991
19.960000 -6.872194
19.980000 -6.256354
20.000000 -5.597524
20.020000 -4.757462
20.040000 -3.981689
20.060000 -3.226166
20.080000 -2.334739
20.100000 -1.525233
20.120000 -0.664600
20.140000 0.085000
20.160000 0.835161
20.180000 1.731684
20.200000 2.434723
20.220000 3.219346
20.240000 4.013519
20.260000 4.764925
20.280000 5.506838
20.300000 6.153163
20.320000 6.808199
20.340000 7.389926
20.360000 7.882033
20.380000 8.381771
20.400000 8.814769
20.420000 9.168200
20.440000 9.596871
20.460000 9.935220
20.480000 10.191710
20.500000 10.354100
20.520000 10.457170
20.540000 10.562050
20.560000 10.440060
20.580000 10.278740
20.600000 10.161630
20.620000 9.911008
20.640000 9.671789
20.660000 9.290883
20.680000 8.920844
20.700000 8.521020
20.720000 8.000753
20.740000 7.430984
20.760000 6.841107
20.780000 6.213714
20.800000 5.551438
20.820000 4.907788
20.840000 4.230207
20.860000 3.541227
20.880000 2.874345
20.900000 2.163310
20.920000 1.378673
20.940000 0.625236
20.960000 -0.164862
20.980000 -1.003033
21.000000 -1.859115
21.020000 -2.709567
21.040000 -3.538819
21.060000 -4.352330
21.080000 -5.177731
21.100000 -5.997502
21.120000 -6.807919
21.140000 -7.548038
21.160000 -8.287780
21.180000 -8.904853
21.200000 -9.466598
21.220000 -9.971895
21.240000 -10.339330
21.260000 -10.601460
21.280000 -10.828020
21.300000 -10.985850
21.320000 -11.048250
21.340000 -11.092360
21.360000 -11.028070
21.380000 -10.896100
21.400000 -10.675440
21.420000 -10.365150
21.440000 -10.020960
21.460000 -9.524768
21.480000 -9.049367
21.500000 -8.564039
21.520000 -7.977732
21.540000 -7.391901
21.560000 -6.735871
21.580000 -6.075683
21.600000 -5.383258
21.620000 -4.559636
21.640000 -3.738381
21.660000 -2.954724
21.680000 -2.066953
21.700000 -1.203351
21.720000 -0.417678
21.740000 0.409795
21.760000 1.189138
21.780000 2.000605
21.800000 2.788658
21.820000 3.546310
21.840000 4.369834
21.860000 5.104451
21.880000 5.824798
21.900000 6.516536
21.920000 7.126873
21.940000 7.672752
21.960000 8.183889
21.980000 8.667229
22.000000 9.078410
22.020000 9.482127
22.040000 9.829957
22.060000 10.144080
22.080000 10.423030
22.100000 10.554940
22.120000 10.656730
22.140000 10.651790
22.160000 10.586220
22.180000 10.421610
22.200000 10.235240
22.220000 9.973421
22.240000 9.650938
22.260000 9.332809
22.280000 8.851808
22.300000 8.350403
22.320000 7.810293
22.340000 7.163296
22.360000 6.509507
22.380000 5.831170
22.400000 5.167004
22.420000 4.473613
22.440000 3.791593
22.460000 3.081539
22.480000 2.396928
22.500000 1.676931
22.520000 0.881176
22.540000 0.173026
22.560000 -0.642923
22.580000 -1.433917
22.600000 -2.199579
22.620000 -2.993542
22.640000 -3.730203
22.660000 -4.534290
22.680000 -5.330521
22.700000 -6.051401
22.720000 -6.861958
22.740000 -7.653386
22.760000 -8.375049
22.780000 -9.027004
22.800000 -9.611420
22.820000 -10.103820
22.840000 -10.496150
22.860000 -10.801650
22.880000 -10.985180
22.900000 -11.154800
22.920000 -11.238050
22.940000 -11.173080
22.960000 -11.142660
22.980000 -10.952370
23.000000 -10.651600
23.020000 -10.386250
23.040000 -9.936004
23.060000 -9.423117
23.080000 -8.891521
23.100000 -8.277208
23.120000 -7.738904
23.140000 -7.120446
23.160000 -6.379836
23.180000 -5.738089
23.200000 -4.970215
23.220000 -4.166394
23.240000 -3.364827
23.260000 -2.448755
23.280000 -1.672030
23.300000 -0.781640
23.320000 0.040540
23.340000 0.826381
23.360000 1.691201
23.380000 2.392839
23.400000 3.222679
23.420000 4.019876
23.440000 4.735112
23.460000 5.504569
23.480000 6.179237
23.500000 6.854508
23.520000 7.489350
23.540000 7.907533
23.560000 8.406109
23.580000 8.896745
23.600000 9.202760
23.620000 9.598187
23.640000 9.873704
23.660000 10.143910
23.680000 10.404020
23.700000 10.440770
23.720000 10.535730
23.740000 10.454000
23.760000 10.346640
23.780000 10.173820
23.800000 9.886377
23.820000 9.645953
23.840000 9.283994
23.860000 8.904881
23.880000 8.444702
23.900000 7.903430
23.920000 7.392335
23.940000 6.827467
23.960000 6.157784
23.980000 5.502735
24.000000 4.892412
24.020000 4.270887
24.040000 3.611090
24.060000 2.910222
24.080000 2.262804
24.100000 1.564862
24.120000 0.831702
24.140000 0.004985
24.160000 -0.838410
24.180000 -1.546826
24.200000 -2.446710
24.220000 -3.310760
24.240000 -4.130979
24.260000 -4.932364
24.280000 -5.667904
24.300000 -6.530638
24.320000 -7.334991
24.340000 -8.000809
24.360000 -8.651896
24.380000 -9.250022
24.400000 -9.730463
24.420000 -10.161290
24.440000 -10.393230
24.460000 -10.591000
24.480000 -10.771980
24.500000 -10.801030
24.520000 -10.831950
24.540000 -10.751770
24.560000 -10.630000
24.580000 -10.458130
24.600000 -10.144890
24.620000 -9.779755
24.640000 -9.352120
24.660000 -8.955741
24.680000 -8.481685
24.700000 -7.889679
24.720000 -7.377786
24.740000 -6.792599
24.760000 -6.197092
24.780000 -5.510101
24.800000 -4.731373
24.820000 -4.038571
24.840000 -3.260852
24.860000 -2.382407
24.880000 -1.577395
24.900000 -0.767692
24.920000 -0.062441
24.940000 0.789916
24.960000 1.599675
24.980000 2.313860
25.000000 3.134275
25.020000 3.907345
25.040000 4.710172
25.060000 5.436051
25.080000 6.105356
25.100000 6.739274
25.120000 7.361514
25.140000 7.875143
25.160000 8.294544
25.180000 8.764007
25.200000 9.189373
25.220000 9.543560
25.240000 9.866772
25.260000 10.148770
25.280000 10.307010
25.300000 10.420590
25.320000 10.455670
25.340000 10.323760
25.360000 10.238730
25.380000 10.073180
25.400000 9.827716
25.420000 9.592992
25.440000 9.248551
25.460000 8.915551
25.480000 8.500982
25.500000 7.954864
25.520000 7.416281
25.540000 6.862154
25.560000 6.249968
25.580000 5.569125
25.600000 4.892930
25.620000 4.315053
25.640000 3.667804
25.660000 2.933453
25.680000 2.249109
25.700000 1.491190
25.720000 0.744573
25.740000 -0.064009
25.760000 -0.945857
25.780000 -1.738448
25.800000 -2.579028
25.820000 -3.409274
25.840000 -4.234730
25.860000 -5.086975
25.880000 -5.867929
25.900000 -6.675419
25.920000 -7.499811
25.940000 -8.234890
25.960000 -8.875081
25.980000 -9.419840
26.000000 -9.881153
26.020000 -10.309290
26.040000 -10.534480
26.060000 -10.692050
26.080000 -10.848490
26.100000 -10.931870
26.120000 -10.948010
26.140000 -10.871980
26.160000 -10.750150
26.180000 -10.577200
26.200000 -10.260870
26.220000 -9.879697
26.240000 -9.453266
26.260000 -8.987865
26.280000 -8.504622
26.300000 -7.962748
26.320000 -7.382743
26.340000 -6.810817
26.360000 -6.188242
26.380000 -5.458750
26.400000 -4.717692
26.420000 -3.927594
26.440000 -3.085054
26.460000 -2.224953
26.480000 -1.347348
26.500000 -0.528011
26.520000 0.254917
26.540000 1.123742
26.560000 1.932507
26.580000 2.682009
26.600000 3.513081
26.620000 4.346659
26.640000 5.102995
26.660000 5.829209
26.680000 6.533663
26.700000 7.151883
26.720000 7.698925
26.740000 8.167617
26.760000 8.633355
26.780000 9.067390
26.800000 9.403358
26.820000 9.736429
26.840000 10.080110
26.860000 10.295180
26.880000 10.390540
26.900000 10.490030
26.920000 10.529170
26.940000 10.399670
26.960000 10.245870
26.980000 10.062360
27.000000 9.886153
27.020000 9.593132
27.040000 9.140795
27.060000 8.848937
27.080000 8.403266
27.100000 7.748917
27.120000 7.164822
27.140000 6.552847
27.160000 5.915190
27.180000 5.256556
27.200000 4.491538
27.220000 3.903620
27.240000 3.248081
27.260000 2.474773
27.280000 1.765026
27.300000 1.030032
27.320000 0.222626
27.340000 -0.575972
27.360000 -1.340626
27.380000 -2.166601
27.400000 -2.946546
27.420000 -3.692800
27.440000 -4.437905
27.460000 -5.251136
27.480000 -6.057310
27.500000 -6.829204
27.520000 -7.594698
27.540000 -8.388394
27.560000 -9.120252
27.580000 -9.607303
27.600000 -10.069200
27.620000 -10.541030
27.640000 -10.796530
27.660000 -10.959150
27.680000 -11.055520
27.700000 -11.179360
27.720000 -11.197970
27.740000 -11.056080
27.760000 -10.913610
27.780000 -10.687130
27.800000 -10.351880
27.820000 -9.880607
27.840000 -9.373629
27.860000 -8.817738
27.880000 -8.187712
27.900000 -7.663972
27.920000 -7.082553
27.940000 -6.394105
27.960000 -5.759795
27.980000 -5.019969
28.000000 -4.277664
28.020000 -3.435320
28.040000 -2.521642
28.060000 -1.729360
28.080000 -0.861543
28.100000 0.053017
28.120000 0.829321
28.140000 1.596972
28.160000 2.415483
28.180000 3.220732
28.200000 4.011096
28.220000 4.751566
28.240000 5.523600
28.260000 6.274096
28.280000 6.968201
28.300000 7.494868
28.320000 8.023299
28.340000 8.562932
28.360000 8.923505
28.380000 9.310194
28.400000 9.660782
28.420000 9.934814
28.440000 10.268010
28.460000 10.434960
28.480000 10.526540
28.500000 10.634300
28.520000 10.560200
28.540000 10.442510
28.560000 10.259900
28.580000 10.003420
28.600000 9.770233
28.620000 9.438759
28.640000 9.062250
28.660000 8.615137
28.680000 8.097853
28.700000 7.589432
28.720000 6.950333
28.740000 6.297958
28.760000 5.654909
28.780000 4.984162
28.800000 4.365171
28.820000 3.681191
28.840000 2.976514
28.860000 2.341321
28.880000 1.605346
28.900000 0.815262
28.920000 0.019619
28.940000 -0.824224
28.960000 -1.609547
28.980000 -2.488552
29.000000 -3.366759
29.020000 -4.167332
29.040000 -5.000042
29.060000 -5.817656
29.080000 -6.657004
29.100000 -7.457619
29.120000 -8.200091
29.140000 -8.876804
29.160000 -9.462971
29.180000 -9.989413
29.200000 -10.349890
29.220000 -10.632770
29.240000 -10.825040
29.260000 -10.941260
29.280000 -11.048490
29.300000 -11.035020
29.320000 -10.988160
29.340000 -10.926630
29.360000 -10.694570
29.380000 -10.395750
29.400000 -10.068970
29.420000 -9.595695
29.440000 -9.163243
29.460000 -8.677858
29.480000 -8.136054
29.500000 -7.604976
29.520000 -6.996922
29.540000 -6.371364
29.560000 -5.712099
29.580000 -4.946549
29.600000 -4.152754
29.620000 -3.321388
29.640000 -2.494434
29.660000 -1.617823
29.680000 -0.793557
29.700000 -0.020039
29.720000 0.791148
29.740000 1.590908
29.760000 2.390487
29.780000 3.212302
29.800000 4.022061
29.820000 4.830307
29.840000 5.600240
29.860000 6.303027
29.880000 6.959869
29.900000 7.548683
29.920000 8.046880
29.940000 8.522001
29.960000 8.991758
29.980000 9.377340
30.000000 9.775624
30.020000 10.142020
30.040000 10.383260
30.060000 10.582810
30.080000 10.653420
30.100000 10.638510
30.120000 10.613070
30.140000 10.416450
30.160000 10.205980
30.180000 10.089990
30.200000 9.767894
30.220000 9.468236
30.240000 9.157487
30.260000 8.666599
30.280000 8.213871
30.300000 7.630770
30.320000 6.993449
30.340000 6.416118
30.360000 5.716692
30.380000 5.071165
30.400000 4.441014
30.420000 3.764301
30.440000 3.060436
30.460000 2.335902
30.480000 1.588724
30.500000 0.756630
30.520000 -0.094187
30.540000 -0.927527
30.560000 -1.777097
30.580000 -2.661046
30.600000 -3.489247
30.620000 -4.327166
30.640000 -5.139866
30.660000 -6.023562
30.680000 -6.870276
30.700000 -7.588648
30.720000 -8.331373
30.740000 -9.008674
30.760000 -9.527022
30.780000 -9.943118
30.800000 -10.284970
30.820000 -10.564600
30.840000 -10.752060
30.860000 -10.858500
30.880000 -10.971570
30.900000 -11.029070
30.920000 -10.978930
30.940000 -10.840260
30.960000 -10.679320
30.980000 -10.368430
31.000000 -9.985422
31.020000 -9.563291
31.040000 -9.132799
31.060000 -8.642219
31.080000 -8.107459
31.100000 -7.584517
31.120000 -7.001557
31.140000 -6.353761
31.160000 -5.625866
31.180000 -4.852460
31.200000 -4.074363
31.220000 -3.198649
31.240000 -2.320596
31.260000 -1.507966
31.280000 -0.666280
31.300000 0.133214
31.320000 0.944681
31.340000 1.765768
31.360000 2.577320
31.380000 3.396825
31.400000 4.246661
31.420000 5.039854
31.440000 5.798080
31.460000 6.454165
31.480000 7.039674
31.500000 7.654128
31.520000 8.181453
31.540000 8.572273
31.560000 9.001462
31.580000 9.448337
31.600000 9.825014
31.620000 10.087170
31.640000 10.292820
31.660000 10.444050
31.680000 10.558730
31.700000 10.504420
31.720000 10.336080
31.740000 10.273580
31.760000 10.055640
31.780000 9.832618
31.800000 9.574494
31.820000 9.158706
31.840000 8.832413
31.860000 8.368594
31.880000 7.748497
31.900000 7.173953
31.920000 6.531394
31.940000 5.915372
31.960000 5.284982
31.980000 4.545521
32.000000 3.914137
32.020000 3.305551
32.040000 2.602035
32.060000 1.809865
32.080000 1.037621
32.100000 0.338979
32.120000 -0.466284
32.140000 -1.307774
32.160000 -2.069726
32.180000 -2.840009
32.200000 -3.523947
32.220000 -4.318960
32.240000 -5.179803
32.260000 -5.906200
32.280000 -6.714530
32.300000 -7.538166
32.320000 -8.254410
32.340000 -8.957379
32.360000 -9.439389
32.380000 -9.881657
32.400000 -10.304690
32.420000 -10.564840
32.440000 -10.689750
32.460000 -10.803120
32.480000 -10.910110
32.500000 -10.924780
32.520000 -10.834940
32.540000 -10.629660
32.560000 -10.408340
32.580000 -10.104040
32.600000 -9.658920
32.620000 -9.168256
32.640000 -8.679202
32.660000 -8.138434
32.680000 -7.636750
32.700000 -7.019439
32.720000 -6.348832
32.740000 -5.782690
32.760000 -5.024730
32.780000 -4.217478
32.800000 -3.393184
32.820000 -2.528476
32.840000 -1.775865
32.860000 -0.884761
32.880000 -0.013485
32.900000 0.696135
32.920000 1.479596
32.940000 2.276513
32.960000 3.075237
32.980000 3.866161
33.000000 4.585514
33.020000 5.352997
33.040000 6.090918
33.060000 6.699645
33.080000 7.287282
33.100000 7.745080
33.120000 8.209501
33.140000 8.670016
33.160000 9.019666
33.180000 9.347177
33.200000 9.644580
33.220000 9.993544
33.240000 10.184830
33.260000 10.223420
33.280000 10.271710
33.300000 10.260710
33.320000 10.152290
33.340000 9.923808
33.360000 9.659858
33.380000 9.509280
33.400000 9.187118
33.420000 8.749541
33.440000 8.298521
33.460000 7.839238
33.480000 7.311410
33.500000 6.674200
33.520000 6.054439
33.540000 5.428853
33.560000 4.807132
33.580000 4.201780
33.600000 3.520768
33.620000 2.886808
33.640000 2.234713
33.660000 1.500713
33.680000 0.786289
33.700000 -0.033552
33.720000 -0.831730
33.740000 -1.538830
33.760000 -2.383205
33.780000 -3.207569
33.800000 -4.002736
33.820000 -4.766816
33.840000 -5.530545
33.860000 -6.425571
33.880000 -7.182537
33.900000 -7.889118
33.920000 -8.576684
33.940000 -9.148889
33.960000 -9.644482
33.980000 -9.970537
34.000000 -10.233020
34.020000 -10.452490
34.040000 -10.570260
34.060000 -10.619580
34.080000 -10.655860
34.100000 -10.609500
34.120000 -10.499950
34.140000 -10.295320
34.160000 -9.990884
34.180000 -9.640015
34.200000 -9.211652
34.220000 -8.746937
34.240000 -8.292093
34.260000 -7.774011
34.280000 -7.262202
34.300000 -6.684339
34.320000 -6.077013
34.340000 -5.406560
34.360000 -4.683762
34.380000 -3.933546
34.400000 -3.091103
34.420000 -2.290923
34.440000 -1.478783
34.460000 -0.690366
34.480000 0.081023
34.500000 0.837513
34.520000 1.626099
34.540000 2.369160
34.560000 3.166595
34.580000 3.991590
34.600000 4.717496
34.620000 5.444817
34.640000 6.165458
34.660000 6.741389
34.680000 7.322626
34.700000 7.789484
34.720000 8.229036
34.740000 8.691483
34.760000 9.083438
34.780000 9.446671
34.800000 9.784880
34.820000 10.039210
34.840000 10.208160
34.860000 10.337350
34.880000 10.329600
34.900000 10.254500
34.920000 10.136560
34.940000 9.989483
34.960000 9.776394
34.980000 9.531419
35.000000 9.224227
35.020000 8.878512
35.040000 8.475537
35.060000 7.915599
35.080000 7.396956
35.100000 6.814206
35.120000 6.165682
35.140000 5.550808
35.160000 4.875846
35.180000 4.263549
35.200000 3.600069
35.220000 2.906469
35.240000 2.201903
35.260000 1.423652
35.280000 0.648860
35.300000 -0.165492
35.320000 -0.989604
35.340000 -1.814766
35.360000 -2.615633
35.380000 -3.440515
35.400000 -4.230949
35.420000 -5.067776
35.440000 -5.944849
35.460000 -6.715426
35.480000 -7.555922
35.500000 -8.311614
35.520000 -8.933700
35.540000 -9.504071
35.560000 -9.956884
35.580000 -10.328200
35.600000 -10.542520
35.620000 -10.727910
35.640000 -10.917560
35.660000 -10.969850
35.680000 -11.020580
35.700000 -10.943920
35.720000 -10.846990
35.740000 -10.665170
35.760000 -10.290780
35.780000 -9.907760
35.800000 -9.509084
35.820000 -9.016487
35.840000 -8.493994
35.860000 -7.996622
35.880000 -7.449217
35.900000 -6.876605
35.920000 -6.210437
35.940000 -5.473482
35.960000 -4.742688
35.980000 -3.909768
36.000000 -3.051207
36.020000 -2.222824
36.040000 -1.346032
36.060000 -0.538177
36.080000 0.252971
36.100000 1.074996
36.120000 1.908659
36.140000 2.705394
36.160000 3.544994
36.180000 4.358674
36.200000 5.145817
36.220000 5.958292
36.240000 6.563518
36.260000 7.183195
36.280000 7.804580
36.300000 8.249131
36.320000 8.701286
36.340000 9.148707
36.360000 9.542342
36.380000 9.934968
36.400000 10.223590
36.420000 10.440200
36.440000 10.605550
36.460000 10.666310
36.480000 10.620280
36.500000 10.554180
36.520000 10.394040
36.540000 10.191190
36.560000 9.990772
36.580000 9.714191
36.600000 9.349712
36.620000 8.958766
36.640000 8.446326
36.660000 7.900657
36.680000 7.265661
36.700000 6.583809
36.720000 5.953251
36.740000 5.260715
36.760000 4.582532
36.780000 3.902962
36.800000 3.199755
36.820000 2.496884
36.840000 1.738546
36.860000 0.957032
36.880000 0.148030
36.900000 -0.657332
36.920000 -1.462820
36.940000 -2.254416
36.960000 -3.022851
36.980000 -3.792294
37.000000 -4.553040
37.020000 -5.334246
37.040000 -6.137661
37.060000 -7.003041
37.080000 -7.748833
37.100000 -8.506751
37.120000 -9.159266
37.140000 -9.682488
37.160000 -10.222360
37.180000 -10.461190
37.200000 -10.770730
37.220000 -10.942940
37.240000 -11.011460
37.260000 -11.158220
37.280000 -11.017130
37.300000 -11.035020
37.320000 -10.872030
37.340000 -10.515450
37.360000 -10.232270
37.380000 -9.768412
37.400000 -9.273505
37.420000 -8.764567
37.440000 -8.178582
37.460000 -7.651285
37.480000 -7.086656
37.500000 -6.365468
37.520000 -5.759767
37.540000 -5.033916
37.560000 -4.204679
37.580000 -3.424495
37.600000 -2.525045
37.620000 -1.732623
37.640000 -0.838437
37.660000 -0.058394
37.680000 0.699664
37.700000 1.603147
37.720000 2.286904
37.740000 3.111506
37.760000 3.922847
37.780000 4.687207
37.800000 5.506936
37.820000 6.110579
37.840000 6.775865
37.860000 7.507905
37.880000 7.770776
37.900000 7.910586
37.920000 10.017010
37.940000 7.618153
37.960000 9.742282
37.980000 11.189400
38.000000 7.843047
38.020000 12.386060
38.040000 8.951694
38.060000 9.966014
38.080000 13.163600
38.100000 6.929650
38.120000 10.936030
38.140000 11.063820
38.160000 8.218128
38.180000 9.967134
38.200000 8.244762
38.220000 8.178904
38.240000 9.461598
38.260000 6.318123
38.280000 5.834194
38.300000 8.009799
38.320000 4.318372
38.340000 5.786807
38.360000 3.736518
38.380000 2.894370
38.400000 5.286173
38.420000 0.171093
38.440000 2.958855
38.460000 0.602817
38.480000 -0.865688
38.500000 1.612908
38.520000 -3.527868
38.540000 -1.682574
38.560000 -2.701865
38.580000 -4.846439
38.600000 -3.264913
38.620000 -6.731278
38.640000 -6.897764
38.660000 -5.318268
38.680000 -9.123823
38.700000 -8.656825
38.720000 -8.328446
38.740000 -10.926760
38.760000 -8.078094
38.780000 -11.353820
38.800000 -11.198170
38.820000 -8.597353
38.840000 -12.091560
38.860000 -9.981095
38.880000 -10.960710
38.900000 -10.699470
38.920000 -9.583918
38.940000 -10.925830
38.960000 -9.168606
38.980000 -9.712091
39.000000 -8.561266
39.020000 -8.170754
39.040000 -8.508067
39.060000 -6.973704
39.080000 -6.867475
39.100000 -6.347376
39.120000 -5.245675
39.140000 -5.307906
39.160000 -4.120084
39.180000 -2.442117
39.200000 -3.267139
39.220000 -1.432404
39.240000 -0.719409
39.260000 -0.250884
39.280000 1.263062
39.300000 0.530083
39.320000 2.685706
39.340000 3.292541
39.360000 3.580353
39.380000 4.643586
39.400000 5.141070
39.420000 6.500699
39.440000 6.388952
39.460000 7.256740
39.480000 7.575555
39.500000 8.147761
39.520000 9.017230
39.540000 8.659780
39.560000 9.367314
39.580000 9.963325
39.600000 10.011500
39.620000 10.233810
39.640000 10.307750
39.660000 9.962275
39.680000 10.613750
39.700000 10.235000
39.720000 9.442344
39.740000 9.936411
39.760000 9.557648
39.780000 9.392856
39.800000 8.608555
39.820000 8.262770
39.840000 8.204446
39.860000 7.419572
39.880000 6.808493
39.900000 5.818091
39.920000 5.879901
39.940000 5.199086
39.960000 4.095466
39.980000 3.787532
40.000000 3.007713
40.020000 2.581395
40.040000 1.660701
40.060000 0.550430
40.080000 0.040806
40.100000 -0.680060
40.120000 -1.796856
40.140000 -2.526025
40.160000 -3.521427
40.180000 -4.322811
40.200000 -4.639427
40.220000 -5.987083
40.240000 -7.454510
40.260000 -6.592001
40.280000 -7.852542
40.300000 -10.440030
40.320000 -7.500735
40.340000 -10.329320
40.360000 -10.529430
40.380000 -9.100718
40.400000 -12.204690
40.420000 -8.690657
40.440000 -11.381950
40.460000 -12.115700
40.480000 -8.583419
40.500000 -11.356970
40.520000 -10.985110
40.540000 -9.571581
40.560000 -9.688341
40.580000 -9.283154
40.600000 -8.815609
40.620000 -9.383642
40.640000 -6.623396
40.660000 -7.601685
40.680000 -8.187950
40.700000 -4.632790
40.720000 -6.374192
40.740000 -4.489101
40.760000 -4.256771
40.780000 -3.037750
40.800000 -1.738938
40.820000 -3.010262
40.840000 0.871640
40.860000 -0.620209
40.880000 0.417622
40.900000 2.635910
40.920000 1.480576
40.940000 4.158538
40.960000 3.916405
40.980000 3.974393
41.000000 6.891183
41.020000 6.381880
41.040000 5.179901
41.060000 9.074083
41.080000 7.778954
41.100000 7.513072
41.120000 9.880509
41.140000 8.196982
41.160000 10.731610
41.180000 9.542720
41.200000 9.484242
41.220000 11.328110
41.240000 9.936677
41.260000 10.431910
41.280000 9.996205
41.300000 10.864540
41.320000 9.495851
41.340000 9.780259
41.360000 10.072260
41.380000 8.560776
41.400000 9.444682
41.420000 7.880226
41.440000 8.048715
41.460000 7.570500
41.480000 6.185973
41.500000 6.009097
41.520000 5.926953
41.540000 4.632188
41.560000 3.382121
41.580000 4.376878
41.600000 2.366849
41.620000 1.806938
41.640000 1.523622
41.660000 0.190684
41.680000 -0.014634
41.700000 -1.349336
41.720000 -1.936750
41.740000 -2.816413
41.760000 -2.888824
41.780000 -4.847573
41.800000 -5.147833
41.820000 -5.093178
41.840000 -7.664967
41.860000 -7.034563
41.880000 -8.334341
41.900000 -9.124075
41.920000 -9.194862
41.940000 -10.197000
41.960000 -10.106010
41.980000 -10.569640
42.000000 -10.849330
42.020000 -11.029980
42.040000 -10.571490
42.060000 -11.404800
42.080000 -11.090880
42.100000 -10.358080
42.120000 -10.903740
42.140000 -10.176950
42.160000 -9.952416
42.180000 -9.209482
42.200000 -8.934120
42.220000 -8.455443
42.240000 -7.986008
42.260000 -7.133175
42.280000 -6.355806
42.300000 -6.635635
42.320000 -4.738879
42.340000 -4.369260
42.360000 -3.908620
42.380000 -2.468023
42.400000 -1.985299
42.420000 -0.967885
42.440000 -0.210204
42.460000 0.693573
42.480000 1.334927
42.500000 2.372352
42.520000 2.961922
42.540000 3.838407
42.560000 4.881924
42.580000 5.084286
42.600000 6.286881
42.620000 6.893059
42.640000 7.241687
42.660000 7.722912
42.680000 8.460106
42.700000 8.851668
42.720000 8.942172
42.740000 9.557536
42.760000 9.689797
42.780000 10.370850
42.800000 10.129210
42.820000 10.167860
42.840000 10.754210
42.860000 10.253800
42.880000 10.119520
42.900000 10.105350
42.920000 9.897565
42.940000 9.486048
42.960000 9.336338
42.980000 8.825958
43.000000 8.409834
43.020000 8.102656
43.040000 7.150035
43.060000 6.945320
43.080000 6.237659
43.100000 5.341808
43.120000 5.058030
43.140000 4.396315
43.160000 3.564907
43.180000 2.937934
43.200000 2.492725
43.220000 1.551251
43.240000 0.848604
43.260000 -0.005839
43.280000 -0.739084
43.300000 -1.336971
43.320000 -2.559703
43.340000 -3.234498
43.360000 -3.867114
43.380000 -4.786014
43.400000 -5.800054
43.420000 -6.410643
43.440000 -7.171054
43.460000 -8.028592
43.480000 -8.517001
43.500000 -9.277104
43.520000 -9.517598
43.540000 -9.935290
43.560000 -10.334270
43.580000 -10.291440
43.600000 -10.603450
43.620000 -10.686740
43.640000 -10.598660
43.660000 -10.548900
43.680000 -10.691530
43.700000 -10.280700
43.720000 -9.914873
43.740000 -9.761789
43.760000 -9.255735
43.780000 -8.916797
43.800000 -8.260404
43.820000 -7.833959
43.840000 -7.512260
43.860000 -6.784141
43.880000 -6.017863
43.900000 -5.571617
43.920000 -4.893084
43.940000 -3.817486
43.960000 -3.218828
43.980000 -2.342483
44.000000 -1.512364
44.020000 -0.806244
44.040000 0.150004
44.060000 0.752933
44.080000 1.565380
44.100000 2.458515
44.120000 3.138729
44.140000 3.944230
44.160000 4.852026
44.180000 5.479895
44.200000 6.049594
44.220000 6.856370
44.240000 7.329194
44.260000 7.787888
44.280000 8.223939
44.300000 8.719112
44.320000 9.178044
44.340000 9.425092
44.360000 9.743164
44.380000 10.061710
44.400000 10.337410
44.420000 10.149880
44.440000 10.202840
44.460000 10.326430
44.480000 9.991752
44.500000 9.843428
44.520000 9.662365
44.540000 9.432429
44.560000 9.124467
44.580000 8.673629
44.600000 8.213254
44.620000 7.864445
44.640000 7.251573
44.660000 6.551223
44.680000 6.117847
44.700000 5.427901
44.720000 4.796685
44.740000 4.247683
44.760000 3.556505
44.780000 2.887732
44.800000 2.176991
44.820000 1.475605
44.840000 0.684891
44.860000 -0.153701
44.880000 -1.001983
44.900000 -1.723604
44.920000 -2.539636
44.940000 -3.513781
44.960000 -4.233722
44.980000 -4.959768
45.000000 -5.857188
45.020000 -6.745828
45.040000 -7.440843
45.060000 -8.056417
45.080000 -8.718160
45.100000 -9.262106
45.120000 -9.709710
45.140000 -9.893644
45.160000 -10.232850
45.180000 -10.515980
45.200000 -10.524570
45.220000 -10.686810
45.240000 -10.756870
45.260000 -10.671620
45.280000 -10.581830
45.300000 -10.410960
45.320000 -10.114390
45.340000 -9.761761
45.360000 -9.338341
45.380000 -8.995300
45.400000 -8.548649
45.420000 -7.944530
45.440000 -7.483175
45.460000 -6.967431
45.480000 -6.305338
45.500000 -5.524832
45.520000 -4.784810
45.540000 -4.097875
45.560000 -3.169074
45.580000 -2.314070
45.600000 -1.539852
45.620000 -0.728343
45.640000 0.081808
45.660000 0.948364
45.680000 1.734247
45.700000 2.519976
45.720000 3.441565
45.740000 4.234912
45.760000 4.975844
45.780000 5.820527
45.800000 6.412141
45.820000 7.038834
45.840000 7.634761
45.860000 8.138770
45.880000 8.655075
45.900000 9.017188
45.920000 9.467438
45.940000 9.904931
45.960000 10.134600
45.980000 10.330200
46.000000 10.510510
46.020000 10.611180
46.040000 10.529380
46.060000 10.389770
46.080000 10.338130
46.100000 10.161140
46.120000 9.885732
46.140000 9.605119
46.160000 9.278658
46.180000 8.905217
46.200000 8.373901
46.220000 7.775901
46.240000 7.271752
46.260000 6.622010
46.280000 5.925412
46.300000 5.304069
46.320000 4.627692
46.340000 3.977446
46.360000 3.289629
46.380000 2.538180
46.400000 1.816321
46.420000 1.059719
46.440000 0.246361
46.460000 -0.530882
46.480000 -1.348860
46.500000 -2.141101
46.520000 -2.860804
46.540000 -3.647261
46.560000 -4.476344
46.580000 -5.221981
46.600000 -6.054593
46.620000 -6.868609
46.640000 -7.670736
46.660000 -8.443190
46.680000 -9.007791
46.700000 -9.552592
46.720000 -10.065240
46.740000 -10.378820
46.760000 -10.655990
46.780000 -10.830850
46.800000 -10.982910
46.820000 -11.086940
46.840000 -11.074180
46.860000 -11.027230
46.880000 -10.853930
46.900000 -10.599330
46.920000 -10.302150
46.940000 -9.850808
46.960000 -9.388277
46.980000 -8.924667
47.000000 -8.375063
47.020000 -7.881641
47.040000 -7.252988
47.060000 -6.608721
47.080000 -5.995583
47.100000 -5.202685
47.120000 -4.375142
47.140000 -3.574247
47.160000 -2.689248
47.180000 -1.840238
47.200000 -0.970797
47.220000 -0.083530
47.240000 0.636509
47.260000 1.509731
47.280000 2.361962
47.300000 3.117359
47.320000 3.962168
47.340000 4.760192
47.360000 5.543611
47.380000 6.292133
47.400000 6.887822
47.420000 7.469858
47.440000 8.046334
47.460000 8.475299
47.480000 8.881985
47.500000 9.317924
47.520000 9.649832
47.540000 10.005830
47.560000 10.265780
47.580000 10.426220
47.600000 10.555390
47.620000 10.548020
47.640000 10.516080
47.660000 10.346810
47.680000 10.134710
47.700000 9.926566
47.720000 9.655139
47.740000 9.314353
47.760000 8.889897
47.780000 8.406823
47.800000 7.956447
47.820000 7.360267
47.840000 6.684843
47.860000 6.100552
47.880000 5.472333
47.900000 4.852965
47.920000 4.164657
47.940000 3.519074
47.960000 2.932921
47.980000 2.216495
48.000000 1.460439
48.020000 0.718261
48.040000 -0.031396
48.060000 -0.826787
48.080000 -1.686019
48.100000 -2.481298
48.120000 -3.270206
48.140000 -4.066872
48.160000 -4.896053
48.180000 -5.692102
48.200000 -6.484749
48.220000 -7.249207
48.240000 -7.964485
48.260000 -8.614773
48.280000 -9.155303
48.300000 -9.618702
48.320000 -9.941452
48.340000 -10.220570
48.360000 -10.440800
48.380000 -10.545660
48.400000 -10.620150
48.420000 -10.669810
48.440000 -10.656790
48.460000 -10.535330
48.480000 -10.306230
48.500000 -10.048260
48.520000 -9.725450
48.540000 -9.281907
48.560000 -8.819082
48.580000 -8.418012
48.600000 -7.931493
48.620000 -7.389842
48.640000 -6.831808
48.660000 -6.232632
48.680000 -5.590802
48.700000 -4.804093
48.720000 -4.035644
48.740000 -3.253668
48.760000 -2.406689
48.780000 -1.568587
48.800000 -0.806048
48.820000 -0.013807
48.840000 0.790406
48.860000 1.562202
48.880000 2.341069
48.900000 3.174115
48.920000 4.017468
48.940000 4.774252
48.960000 5.488913
48.980000 6.226457
49.000000 6.868553
49.020000 7.388064
49.040000 7.857233
49.060000 8.388997
49.080000 8.853166
49.100000 9.218598
49.120000 9.631249
49.140000 9.970649
49.160000 10.236490
49.180000 10.367780
49.200000 10.419260
49.220000 10.474630
49.240000 10.302930
49.260000 10.150510
49.280000 10.025740
49.300000 9.756747
49.320000 9.487743
49.340000 9.111780
49.360000 8.794072
49.380000 8.317803
49.400000 7.708153
49.420000 7.236352
49.440000 6.664818
49.460000 5.957480
49.480000 5.308634
49.500000 4.781982
49.520000 4.152138
49.540000 3.471182
49.560000 2.721778
49.580000 2.083981
49.600000 1.411049
49.620000 0.491112
49.640000 -0.337033
49.660000 -1.113058
49.680000 -1.927115
49.700000 -2.850399
49.720000 -3.656867
49.740000 -4.361096
49.760000 -5.234402
49.780000 -6.002109
49.800000 -6.796282
49.820000 -7.528238
49.840000 -8.119614
49.860000 -8.792448
49.880000 -9.220530
49.900000 -9.619206
49.920000 -9.978967
49.940000 -10.151110
49.960000 -10.353400
49.980000 -10.509050
50.000000 -10.580340
50.020000 -10.628530
50.040000 -10.550540
50.060000 -10.459090
50.080000 -10.293580
50.100000 -9.946073
50.120000 -9.631641
50.140000 -9.258298
50.160000 -8.833099
50.180000 -8.385594
50.200000 -7.891275
50.220000 -7.415525
50.240000 -6.830226
50.260000 -6.194851
50.280000 -5.537771
50.300000 -4.729497
50.320000 -3.969030
50.340000 -3.124683
50.360000 -2.287940
50.380000 -1.494817
50.400000 -0.637601
50.420000 0.134964
50.440000 0.940634
50.460000 1.770025
50.480000 2.600341
50.500000 3.420798
50.520000 4.196151
50.540000 5.030779
50.560000 5.757666
50.580000 6.388168
50.600000 7.013810
50.620000 7.616795
50.640000 8.089129
50.660000 8.546717
50.680000 9.025422
50.700000 9.422459
50.720000 9.795803
50.740000 10.079470
50.760000 10.309280
50.780000 10.466800
50.800000 10.510320
50.820000 10.447200
50.840000 10.422690
50.860000 10.272420
50.880000 10.036200
50.900000 9.877218
50.920000 9.556037
50.940000 9.228414
50.960000 8.843658
50.980000 8.303478
51.000000 7.794470
51.020000 7.181808
51.040000 6.541533
51.060000 5.929529
51.080000 5.232526
51.100000 4.577574
51.120000 3.949453
51.140000 3.215383
51.160000 2.511644
51.180000 1.747074
51.200000 1.003033
51.220000 0.227919
51.240000 -0.639338
51.260000 -1.356352
51.280000 -2.154250
51.300000 -2.926914
51.320000 -3.672341
51.340000 -4.497307
51.360000 -5.223788
51.380000 -6.057688
51.400000 -6.903618
51.420000 -7.639200
51.440000 -8.364995
51.460000 -8.978930
51.480000 -9.494380
51.500000 -9.972497
51.520000 -10.290850
51.540000 -10.540210
51.560000 -10.744880
51.580000 -10.871070
51.600000 -10.979200
51.620000 -10.980500
51.640000 -10.916760
51.660000 -10.812780
51.680000 -10.549070
51.700000 -10.235490
51.720000 -9.793170
51.740000 -9.380435
51.760000 -8.916980
51.780000 -8.356817
51.800000 -7.842305
51.820000 -7.267397
51.840000 -6.681384
51.860000 -5.980978
51.880000 -5.214349
51.900000 -4.432275
51.920000 -3.601554
51.940000 -2.720392
51.960000 -1.810033
51.980000 -0.969943
52.000000 -0.138423
52.020000 0.684891
52.040000 1.537822
52.060000 2.332093
52.080000 3.139373
52.100000 3.967966
52.120000 4.771409
52.140000 5.592020
52.160000 6.270315
52.180000 6.905032
52.200000 7.519962
52.220000 8.028452
52.240000 8.501570
52.260000 8.902696
52.280000 9.279513
52.300000 9.645757
52.320000 10.002830
52.340000 10.208330
52.360000 10.393720
52.380000 10.547590
52.400000 10.501850
52.420000 10.452840
52.440000 10.271500
52.460000 10.094450
52.480000 9.915518
52.500000 9.586368
52.520000 9.248985
52.540000 8.904489
52.560000 8.441803
52.580000 7.883209
52.600000 7.327948
52.620000 6.720888
52.640000 6.095721
52.660000 5.443333
52.680000 4.777991
52.700000 4.177372
52.720000 3.552052
52.740000 2.860230
52.760000 2.154264
52.780000 1.468183
52.800000 0.698880
52.820000 -0.115164
52.840000 -0.891356
52.860000 -1.716253
52.880000 -2.512680
52.900000 -3.271550
52.920000 -4.124902
52.940000 -4.908236
52.960000 -5.677959
52.980000 -6.506790
53.000000 -7.286484
53.020000 -8.040005
53.040000 -8.704646
53.060000 -9.203432
53.080000 -9.692696
53.100000 -10.079330
53.120000 -10.287900
53.140000 -10.459660
53.160000 -10.593280
53.180000 -10.661810
53.200000 -10.697160
53.220000 -10.655010
53.240000 -10.503770
53.260000 -10.364970
53.280000 -10.049610
53.300000 -9.663121
53.320000 -9.262331
53.340000 -8.785180
53.360000 -8.348695
53.380000 -7.870620
53.400000 -7.306760
53.420000 -6.750897
53.440000 -6.195005
53.460000 -5.510031
53.480000 -4.723728
53.500000 -3.951148
53.520000 -3.154818
53.540000 -2.331210
53.560000 -1.458002
53.580000 -0.676223
53.600000 0.064233
53.620000 0.849626
53.640000 1.653223
53.660000 2.448839
53.680000 3.193776
53.700000 4.048989
53.720000 4.822241
53.740000 5.545235
53.760000 6.256172
53.780000 6.839650
53.800000 7.444680
53.820000 7.881893
53.840000 8.328782
53.860000 8.805233
53.880000 9.190955
53.900000 9.549596
53.920000 9.933722
53.940000 10.175560
53.960000 10.282810
53.980000 10.421490
54.000000 10.373880
54.020000 10.255270
54.040000 10.138840
54.060000 9.892580
54.080000 9.757224
54.100000 9.468586
54.120000 9.077486
54.140000 8.765085
54.160000 8.303674
54.180000 7.763200
54.200000 7.206244
54.220000 6.589004
54.240000 5.950086
54.260000 5.328491
54.280000 4.660404
54.300000 4.096741
54.320000 3.414343
54.340000 2.725937
54.360000 2.051059
54.380000 1.265694
54.400000 0.511179
54.420000 -0.349412
54.440000 -1.181870
54.460000 -2.001361
54.480000 -2.878742
54.500000 -3.628650
54.520000 -4.445509
54.540000 -5.255729
54.560000 -6.035129
54.580000 -6.841415
54.600000 -7.542437
54.620000 -8.210720
54.640000 -8.840619
54.660000 -9.284946
54.680000 -9.647451
54.700000 -10.004030
54.720000 -10.191440
54.740000 -10.365000
54.760000 -10.463530
54.780000 -10.542210
54.800000 -10.616400
54.820000 -10.532040
54.840000 -10.422900
54.860000 -10.243450
54.880000 -9.962891
54.900000 -9.594434
54.920000 -9.168816
54.940000 -8.810750
54.960000 -8.337842
54.980000 -7.843902
55.000000 -7.365533
55.020000 -6.794881
55.040000 -6.210381
55.060000 -5.472347
55.080000 -4.749438
55.100000 -3.975486
55.120000 -3.101452
55.140000 -2.286680
55.160000 -1.470493
55.180000 -0.664320
55.200000 0.151894
55.220000 0.954651
55.240000 1.731180
55.260000 2.560642
55.280000 3.459322
55.300000 4.216091
55.320000 5.022349
55.340000 5.782046
55.360000 6.469513
55.380000 7.097102
55.400000 7.578426
55.420000 8.167295
55.440000 8.655775
55.460000 8.970024
55.480000 9.535956
55.500000 9.835810
55.520000 10.146210
55.540000 10.419680
55.560000 10.450700
55.580000 10.656940
55.600000 10.531390
55.620000 10.378050
55.640000 10.363740
55.660000 10.109590
55.680000 9.848792
55.700000 9.615243
55.720000 9.274023
55.740000 8.884730
55.760000 8.351412
55.780000 7.774179
55.800000 7.262972
55.820000 6.556502
55.840000 5.847498
55.860000 5.253055
55.880000 4.565419
55.900000 3.902150
55.920000 3.116197
55.940000 2.478092
55.960000 1.733057
55.980000 0.834643
56.000000 0.126002
56.020000 -0.721705
56.040000 -1.519589
56.060000 -2.281050
56.080000 -3.103062
56.100000 -3.842076
56.120000 -4.599840
56.140000 -5.429889
56.160000 -6.191952
56.180000 -7.045948
56.200000 -7.861448
56.220000 -8.459448
56.240000 -9.135390
56.260000 -9.702400
56.280000 -10.082050
56.300000 -10.382310
56.320000 -10.611480
56.340000 -10.872280
56.360000 -10.938060
56.380000 -10.947520
56.400000 -10.998610
56.420000 -10.975600
56.440000 -10.758180
56.460000 -10.460230
56.480000 -10.164180
56.500000 -9.736064
56.520000 -9.254769
56.540000 -8.722683
56.560000 -8.266089
56.580000 -7.692833
56.600000 -7.101317
56.620000 -6.535203
56.640000 -5.801595
56.660000 -5.079987
56.680000 -4.245947
56.700000 -3.442812
56.720000 -2.598171
56.740000 -1.623676
56.760000 -0.850130
56.780000 -0.068392
56.800000 0.805894
56.820000 1.607754
56.840000 2.383877
56.860000 3.190261
56.880000 4.017874
56.900000 4.855303
56.920000 5.570189
56.940000 6.282666
56.960000 7.005170
56.980000 7.465573
57.000000 8.002028
57.020000 8.482581
57.040000 8.874521
57.060000 9.256925
57.080000 9.568500
57.100000 9.953593
57.120000 10.188070
57.140000 10.320560
57.160000 10.464040
57.180000 10.482930
57.200000 10.396630
57.220000 10.207390
57.240000 10.069200
57.260000 9.886965
57.280000 9.544092
57.300000 9.220082
57.320000 8.930913
57.340000 8.440039
57.360000 7.843285
57.380000 7.313216
57.400000 6.744665
57.420000 6.119583
57.440000 5.365236
57.460000 4.757196
57.480000 4.221665
57.500000 3.511666
57.520000 2.797102
57.540000 2.119087
57.560000 1.446548
57.580000 0.681264
57.600000 -0.182044
57.620000 -0.981384
57.640000 -1.702263
57.660000 -2.538068
57.680000 -3.328586
57.700000 -4.117368
57.720000 -4.933330
57.740000 -5.677021
57.760000 -6.503373
57.780000 -7.339430
57.800000 -8.070574
57.820000 -8.710570
57.840000 -9.227798
57.860000 -9.716418
57.880000 -10.101120
57.900000 -10.324220
57.920000 -10.425580
57.940000 -10.589460
57.960000 -10.703820
57.980000 -10.686960
58.000000 -10.625560
58.020000 -10.499360
58.040000 -10.338660
58.060000 -10.048120
58.080000 -9.632818
58.100000 -9.227924
58.120000 -8.769482
58.140000 -8.299389
58.160000 -7.848369
58.180000 -7.268965
58.200000 -6.719067
58.220000 -6.152953
58.240000 -5.466914
58.260000 -4.717342
58.280000 -3.894462
58.300000 -3.110176
58.320000 -2.286904
58.340000 -1.418583
58.360000 -0.603363
58.380000 0.133144
58.400000 0.910541
58.420000 1.722064
58.440000 2.506210
58.460000 3.307315
58.480000 4.083508
58.500000 4.870021
58.520000 5.656352
58.540000 6.287918
58.560000 6.935181
58.580000 7.443195
58.600000 7.898711
58.620000 8.384179
58.640000 8.789521
58.660000 9.163243
58.680000 9.540717
58.700000 9.871001
58.720000 10.131660
58.740000 10.279110
58.760000 10.341650
58.780000 10.356080
58.800000 10.250700
58.820000 10.070800
58.840000 9.915784
58.860000 9.695917
58.880000 9.469034
58.900000 9.081169
58.920000 8.718412
58.940000 8.328138
58.960000 7.747628
58.980000 7.198640
59.000000 6.577409
59.020000 5.972030
59.040000 5.347620
59.060000 4.658822
59.080000 4.087415
59.100000 3.480201
59.120000 2.719174
59.140000 2.013586
59.160000 1.271674
59.180000 0.482164
59.200000 -0.388887
59.220000 -1.283661
59.240000 -2.075397
59.260000 -2.930793
59.280000 -3.782113
59.300000 -4.572113
59.320000 -5.368176
59.340000 -6.195425
59.360000 -6.984641
59.380000 -7.671632
59.400000 -8.324049
59.420000 -8.924919
59.440000 -9.377046
59.460000 -9.714345
59.480000 -10.010640
59.500000 -10.230310
59.520000 -10.368480
59.540000 -10.447240
59.560000 -10.520240
59.580000 -10.587400
59.600000 -10.484920
59.620000 -10.337590
59.640000 -10.173450
59.660000 -9.880201
59.680000 -9.484886
59.700000 -9.095550
59.720000 -8.753448
59.740000 -8.236038
59.760000 -7.742587
59.780000 -7.275281
59.800000 -6.704224
59.820000 -6.088930
59.840000 -5.341374
59.860000 -4.615159
59.880000 -3.859454
59.900000 -2.949977
59.920000 -2.139770
59.940000 -1.380270
59.960000 -0.523292
59.980000 0.278289
60.000000 1.051849
60.020000 1.853374
60.040000 2.684347
60.060000 3.546787
60.080000 4.321117
60.100000 5.077649
60.120000 5.871906
60.140000 6.492339
60.160000 7.053860
60.180000 7.630924
60.200000 8.155448
60.220000 8.563535
60.240000 8.996071
60.260000 9.443380
60.280000 9.795327
60.300000 10.062720
60.320000 10.258070
60.340000 10.437750
60.360000 10.497680
60.380000 10.406660
60.400000 10.323300
60.420000 10.230130
60.440000 10.033900
60.460000 9.790720
60.480000 9.539023
60.500000 9.229549
60.520000 8.802796
60.540000 8.285778
60.560000 7.757753
60.580000 7.165761
60.600000 6.493109
60.620000 5.849906
60.640000 5.202909
60.660000 4.547397
60.680000 3.837749
60.700000 3.141655
60.720000 2.450365
60.740000 1.634473
60.760000 0.843311
60.780000 0.045609
60.800000 -0.751841
60.820000 -1.544081
60.840000 -2.391033
60.860000 -3.119586
60.880000 -3.855687
60.900000 -4.709430
60.920000 -5.513965
60.940000 -6.273102
60.960000 -7.087762
60.980000 -7.908807
61.000000 -8.566867
61.020000 -9.113237
61.040000 -9.613493
61.060000 -10.075810
61.080000 -10.346720
61.100000 -10.515650
61.120000 -10.709090
61.140000 -10.894090
61.160000 -10.926880
61.180000 -10.869080
61.200000 -10.864810
61.220000 -10.725120
61.240000 -10.428140
61.260000 -10.041940
61.280000 -9.670683
61.300000 -9.255483
61.320000 -8.688697
61.340000 -8.204488
61.360000 -7.734731
61.380000 -7.118541
61.400000 -6.483026
61.420000 -5.811845
61.440000 -5.112167
61.460000 -4.244406
61.480000 -3.393926
61.500000 -2.583285
61.520000 -1.704644
61.540000 -0.838634
61.560000 -0.025584
61.580000 0.767763
61.600000 1.571024
61.620000 2.434821
61.640000 3.249411
61.660000 3.982207
61.680000 4.881475
61.700000 5.646689
61.720000 6.277625
61.740000 6.950809
61.760000 7.518715
61.780000 8.031463
61.800000 8.446424
61.820000 8.873891
61.840000 9.323749
61.860000 9.627062
61.880000 9.929073
61.900000 10.232090
61.920000 10.405650
61.940000 10.446540
61.960000 10.485720
61.980000 10.405660
62.000000 10.269940
62.020000 10.079720
62.040000 9.832226
62.060000 9.631543
62.080000 9.299383
62.100000 8.852466
62.120000 8.434886
62.140000 7.929000
62.160000 7.302503
62.180000 6.702053
62.200000 6.088482
62.220000 5.398312
62.240000 4.750544
62.260000 4.107047
62.280000 3.501640
62.300000 2.771000
62.320000 2.046424
62.340000 1.356478
62.360000 0.557040
62.380000 -0.225622
62.400000 -1.083006
62.420000 -1.845252
62.440000 -2.582613
62.460000 -3.445696
62.480000 -4.240541
62.500000 -4.991234
62.520000 -5.821395
62.540000 -6.650647
62.560000 -7.433953
62.580000 -8.171006
62.600000 -8.775658
62.620000 -9.330681
62.640000 -9.782710
62.660000 -10.103400
62.680000 -10.369020
62.700000 -10.502720
62.720000 -10.596920
62.740000 -10.692560
62.760000 -10.722220
62.780000 -10.633320
62.800000 -10.498900
62.820000 -10.310100
62.840000 -9.996751
62.860000 -9.605623
62.880000 -9.156801
62.900000 -8.734264
62.920000 -8.281773
62.940000 -7.712480
62.960000 -7.221480
62.980000 -6.689380
63.000000 -6.061805
63.020000 -5.358626
63.040000 -4.631109
63.060000 -3.849497
63.080000 -3.014239
63.100000 -2.182957
63.120000 -1.381418
63.140000 -0.567823
63.160000 0.196131
63.180000 0.965448
63.200000 1.764634
63.220000 2.521614
63.240000 3.362278
63.260000 4.161002
63.280000 4.898700
63.300000 5.694497
63.320000 6.321190
63.340000 6.915856
63.360000 7.499097
63.380000 7.945314
63.400000 8.409624
63.420000 8.803370
63.440000 9.223751
63.460000 9.626782
63.480000 9.886349
63.500000 10.143730
63.520000 10.334750
63.540000 10.370320
63.560000 10.334760
63.580000 10.213090
63.600000 10.084850
63.620000 9.926650
63.640000 9.651526
63.660000 9.404507
63.680000 9.094682
63.700000 8.689901
63.720000 8.228154
63.740000 7.696292
63.760000 7.150903
63.780000 6.512111
63.800000 5.914518
63.820000 5.272547
63.840000 4.616126
63.860000 4.006125
63.880000 3.338655
63.900000 2.677948
63.920000 1.925141
63.940000 1.124498
63.960000 0.403577
63.980000 -0.485189
64.000000 -1.374248
64.020000 -2.164878
64.040000 -3.015107
64.060000 -3.832455
64.080000 -4.637481
64.100000 -5.464716
64.120000 -6.223698
64.140000 -7.041257
64.160000 -7.759559
64.180000 -8.363524
64.200000 -8.947325
64.220000 -9.392170
64.240000 -9.764253
64.260000 -10.011920
64.280000 -10.196380
64.300000 -10.401870
64.320000 -10.451870
64.340000 -10.522490
64.360000 -10.565680
64.380000 -10.458360
64.400000 -10.359620
64.420000 -10.116130
64.440000 -9.819076
64.460000 -9.475980
64.480000 -9.055781
64.500000 -8.664219
64.520000 -8.217679
64.540000 -7.701305
64.560000 -7.188530
64.580000 -6.663838
64.600000 -5.990458
64.620000 -5.272379
64.640000 -4.550632
64.660000 -3.753658
64.680000 -2.928636
64.700000 -2.067219
64.720000 -1.263734
64.740000 -0.526022
64.760000 0.304153
64.780000 1.144271
64.800000 1.903786
64.820000 2.723669
64.840000 3.570592
64.860000 4.364709
64.880000 5.165968
64.900000 5.842288
64.920000 6.484959
64.940000 7.104048
64.960000 7.604934
64.980000 8.132553
65.000000 8.577524
65.020000 8.989657
65.040000 9.431897
65.060000 9.778243
65.080000 10.041000
65.100000 10.238030
65.120000 10.388260
65.140000 10.451080
65.160000 10.383380
65.180000 10.302650
65.200000 10.154680
65.220000 10.019660
65.240000 9.775904
65.260000 9.475504
65.280000 9.178632
65.300000 8.767073
65.320000 8.249285
65.340000 7.714258
65.360000 7.095058
65.380000 6.474260
65.400000 5.835035
65.420000 5.129447
65.440000 4.491440
65.460000 3.820034
65.480000 3.075349
65.500000 2.349751
65.520000 1.591203
65.540000 0.802771
65.560000 -0.032558
65.580000 -0.826213
65.600000 -1.627933
65.620000 -2.406997
65.640000 -3.164425
65.660000 -3.984700
65.680000 -4.720577
65.700000 -5.528795
65.720000 -6.387215
65.740000 -7.132881
65.760000 -7.905012
65.780000 -8.591919
65.800000 -9.133514
65.820000 -9.683986
65.840000 -10.050850
65.860000 -10.323160
65.880000 -10.603850
65.900000 -10.733800
65.920000 -10.874850
65.940000 -10.961360
65.960000 -10.922790
65.980000 -10.857020
66.000000 -10.720660
66.020000 -10.444560
66.040000 -10.087110
66.060000 -9.659326
66.080000 -9.219662
66.100000 -8.723271
66.120000 -8.210272
66.140000 -7.692091
66.160000 -7.104692
66.180000 -6.467483
66.200000 -5.794775
66.220000 -5.026508
66.240000 -4.227784
66.260000 -3.382905
66.280000 -2.483189
66.300000 -1.654848
66.320000 -0.768015
66.340000 0.053913
66.360000 0.842849
66.380000 1.680082
66.400000 2.490359
66.420000 3.287150
66.440000 4.139941
66.460000 4.899372
66.480000 5.680381
66.500000 6.393811
66.520000 6.940180
66.540000 7.589376
66.560000 8.078528
66.580000 8.448931
66.600000 8.938769
66.620000 9.307996
66.640000 9.634470
66.660000 9.964053
66.680000 10.172230
66.700000 10.394730
66.720000 10.476620
66.740000 10.428600
66.760000 10.397020
66.780000 10.278160
66.800000 10.062800
66.820000 9.834788
66.840000 9.576244
66.860000 9.293922
66.880000 8.851486
66.900000 8.387050
66.920000 7.889188
66.940000 7.247904
66.960000 6.685823
66.980000 6.003313
67.000000 5.326250
67.020000 4.728531
67.040000 4.045152
67.060000 3.424565
67.080000 2.724299
67.100000 1.949423
67.120000 1.285873
67.140000 0.512523
67.160000 -0.334106
67.180000 -1.135351
67.200000 -1.907385
67.220000 -2.677794
67.240000 -3.471434
67.260000 -4.317448
67.280000 -5.064191
67.300000 -5.822320
67.320000 -6.677323
67.340000 -7.457899
67.360000 -8.177322
67.380000 -8.805513
67.400000 -9.343844
67.420000 -9.811094
67.440000 -10.158410
67.460000 -10.379550
67.480000 -10.531230
67.500000 -10.671240
67.520000 -10.731310
67.540000 -10.732890
67.560000 -10.673410
67.580000 -10.534840
67.600000 -10.364840
67.620000 -10.024310
67.640000 -9.648529
67.660000 -9.205141
67.680000 -8.755605
67.700000 -8.292667
67.720000 -7.754672
67.740000 -7.228132
67.760000 -6.648238
67.780000 -6.040436
67.800000 -5.330857
67.820000 -4.557087
67.840000 -3.768320
67.860000 -2.952540
67.880000 -2.086081
67.900000 -1.244647
67.920000 -0.469505
67.940000 0.309530
67.960000 1.110299
67.980000 1.906236
68.000000 2.661550
68.020000 3.468284
68.040000 4.295393
68.060000 5.064878
68.080000 5.740470
68.100000 6.414340
68.120000 7.059391
68.140000 7.516335
68.160000 7.976738
68.180000 8.413601
68.200000 8.804855
68.220000 9.237195
68.240000 9.534318
68.260000 9.861759
68.280000 10.127580
68.300000 10.231150
68.320000 10.325140
68.340000 10.308510
68.360000 10.145170
68.380000 10.025670
68.400000 9.870175
68.420000 9.632468
68.440000 9.355117
68.460000 9.000258
68.480000 8.682465
68.500000 8.206043
68.520000 7.632997
68.540000 7.104706
68.560000 6.516803
68.580000 5.880532
68.600000 5.222163
68.620000 4.613269
68.640000 4.012945
68.660000 3.328026
68.680000 2.632199
68.700000 1.913028
68.720000 1.159605
68.740000 0.364984
68.760000 -0.522255
68.780000 -1.366392
68.800000 -2.226941
68.820000 -3.114377
68.840000 -3.888091
68.860000 -4.700496
68.880000 -5.535741
68.900000 -6.315434
68.920000 -7.093769
68.940000 -7.786418
68.960000 -8.441733
68.980000 -8.990105
69.000000 -9.437177
69.020000 -9.793254
69.040000 -10.057760
69.060000 -10.278090
69.080000 -10.377100
69.100000 -10.487710
69.120000 -10.565180
69.140000 -10.508910
69.160000 -10.482350
69.180000 -10.329570
69.200000 -10.086990
69.220000 -9.826316
69.240000 -9.404171
69.260000 -9.050698
69.280000 -8.679931
69.300000 -8.106437
69.320000 -7.673313
69.340000 -7.158619
69.360000 -6.539432
69.380000 -5.960533
69.400000 -5.170281
69.420000 -4.445537
69.440000 -3.704787
69.460000 -2.812688
69.480000 -1.996082
69.500000 -1.186603
69.520000 -0.374926
69.540000 0.383678
69.560000 1.244353
69.580000 2.025055
69.600000 2.835794
69.620000 3.660886
69.640000 4.437821
69.660000 5.231490
69.680000 5.925734
69.700000 6.541603
69.720000 7.139168
69.740000 7.669686
69.760000 8.179212
69.780000 8.602926
69.800000 9.001448
69.820000 9.423943
69.840000 9.768314
69.860000 10.037820
69.880000 10.205400
69.900000 10.344710
69.920000 10.405870
69.940000 10.364800
69.960000 10.217880
69.980000 10.097560
70.000000 9.974052
70.020000 9.691590
70.040000 9.405641
70.060000 9.099205
70.080000 8.667594
70.100000 8.187768
70.120000 7.610746
70.140000 7.001501
70.160000 6.448214
70.180000 5.747948
70.200000 5.073364
70.220000 4.482352
70.240000 3.734544
70.260000 3.048183
70.280000 2.340467
70.300000 1.531492
70.320000 0.785869
70.340000 -0.073840
70.360000 -0.842330
70.380000 -1.630300
70.400000 -2.488034
70.420000 -3.235604
70.440000 -4.037479
70.460000 -4.857628
70.480000 -5.668073
70.500000 -6.508751
70.520000 -7.259863
70.540000 -7.974931
70.560000 -8.685392
70.580000 -9.183800
70.600000 -9.675500
70.620000 -10.057670
70.640000 -10.319610
70.660000 -10.576840
70.680000 -10.695350
70.700000 -10.807210
70.720000 -10.906170
70.740000 -10.887650
70.760000 -10.762400
70.780000 -10.613040
70.800000 -10.364860
70.820000 -10.002370
70.840000 -9.574073
70.860000 -9.128094
70.880000 -8.672397
70.900000 -8.192837
70.920000 -7.638108
70.940000 -7.046578
70.960000 -6.440596
70.980000 -5.749726
71.000000 -4.961925
71.020000 -4.164083
71.040000 -3.314303
71.060000 -2.466707
71.080000 -1.600347
71.100000 -0.743061
71.120000 0.066712
71.140000 0.884537
71.160000 1.711687
71.180000 2.525577
71.200000 3.348317
71.220000 4.178380
71.240000 4.944505
71.260000 5.718009
71.280000 6.395183
71.300000 6.996278
71.320000 7.548206
71.340000 8.050115
71.360000 8.495688
71.380000 8.915817
71.400000 9.292312
71.420000 9.605623
71.440000 9.941620
71.460000 10.199280
71.480000 10.330690
71.500000 10.430690
71.520000 10.413590
71.540000 10.374860
71.560000 10.226250
71.580000 10.031960
71.600000 9.823375
71.620000 9.596087
71.640000 9.237755
71.660000 8.808677
71.680000 8.374573
71.700000 7.827070
71.720000 7.265044
71.740000 6.593737
71.760000 5.969159
71.780000 5.368793
71.800000 4.663961
71.820000 4.014961
71.840000 3.376002
71.860000 2.689164
71.880000 1.982471
71.900000 1.180988
71.920000 0.414304
71.940000 -0.320131
71.960000 -1.188214
71.980000 -1.979292
72.000000 -2.748455
72.020000 -3.546605
72.040000 -4.331619
72.060000 -5.135511
72.080000 -5.934207
72.100000 -6.746444
72.120000 -7.537536
72.140000 -8.232971
72.160000 -8.852648
72.180000 -9.403428
72.200000 -9.820015
72.220000 -10.139430
72.240000 -10.365120
72.260000 -10.569960
72.280000 -10.668600
72.300000 -10.675700
72.320000 -10.741530
72.340000 -10.698400
72.360000 -10.541550
72.380000 -10.285570
72.400000 -9.984554
72.420000 -9.658626
72.440000 -9.163943
72.460000 -8.707559
72.480000 -8.244118
72.500000 -7.774963
72.520000 -7.204984
72.540000 -6.599520
72.560000 -6.025957
72.580000 -5.303943
72.600000 -4.515245
72.620000 -3.738465
72.640000 -2.897899
72.660000 -2.045514
72.680000 -1.220421
72.700000 -0.438277
72.720000 0.334274
72.740000 1.194109
72.760000 1.967095
72.780000 2.684305
72.800000 3.579190
72.820000 4.395237
72.840000 5.111495
72.860000 5.816032
72.880000 6.483208
72.900000 7.148732
72.920000 7.572614
72.940000 8.022669
72.960000 8.517029
72.980000 8.928602
73.000000 9.283462
73.020000 9.616532
73.040000 9.961547
73.060000 10.200610
73.080000 10.275740
73.100000 10.341290
73.120000 10.337030
73.140000 10.177280
73.160000 10.049730
73.180000 9.837701
73.200000 9.608522
73.220000 9.330345
73.240000 8.953248
73.260000 8.594020
73.280000 8.091369
73.300000 7.544930
73.320000 7.005604
73.340000 6.377371
73.360000 5.724814
73.380000 5.092506
73.400000 4.519124
73.420000 3.887601
73.440000 3.175697
73.460000 2.484701
73.480000 1.832004
73.500000 1.070319
73.520000 0.191706
73.540000 -0.662471
73.560000 -1.431550
73.580000 -2.293821
73.600000 -3.201758
73.620000 -3.996113
73.640000 -4.736387
73.660000 -5.510941
73.680000 -6.365244
73.700000 -7.132054
73.720000 -7.741061
73.740000 -8.388268
73.760000 -8.953598
73.780000 -9.391484
73.800000 -9.745867
73.820000 -9.955273
73.840000 -10.203990
73.860000 -10.344310
73.880000 -10.406630
73.900000 -10.510560
73.920000 -10.463680
73.940000 -10.404980
73.960000 -10.296760
73.980000 -10.059980
74.000000 -9.751776
74.020000 -9.386989
74.040000 -9.060808
74.060000 -8.644838
74.080000 -8.102964
74.100000 -7.647350
74.120000 -7.172636
74.140000 -6.549654
74.160000 -5.899436
74.180000 -5.200836
74.200000 -4.471611
74.220000 -3.684958
74.240000 -2.802816
74.260000 -2.001921
74.280000 -1.220477
74.300000 -0.384168
74.320000 0.415452
74.340000 1.213532
74.360000 2.031916
74.380000 2.885590
74.400000 3.649053
74.420000 4.468516
74.440000 5.255085
74.460000 5.948518
74.480000 6.574258
74.500000 7.152485
74.520000 7.743974
74.540000 8.206855
74.560000 8.601470
74.580000 9.099289
74.600000 9.491580
74.620000 9.795453
74.640000 10.072170
74.660000 10.289940
74.680000 10.428250
74.700000 10.456290
74.720000 10.367420
74.740000 10.330340
74.760000 10.190980
74.780000 9.930851
74.800000 9.765640
74.820000 9.488583
74.840000 9.090005
74.860000 8.660116
74.880000 8.195330
74.900000 7.631106
74.920000 6.982316
74.940000 6.377329
74.960000 5.725038
74.980000 5.074162
75.000000 4.368924
75.020000 3.678474
75.040000 3.032149
75.060000 2.238732
75.080000 1.431368
75.100000 0.689540
75.120000 -0.106076
75.140000 -0.971526
75.160000 -1.771006
75.180000 -2.537354
75.200000 -3.348177
75.220000 -4.133010
75.240000 -4.983056
75.260000 -5.732180
75.280000 -6.534475
75.300000 -7.379872
75.320000 -8.035230
75.340000 -8.673041
75.360000 -9.237601
75.380000 -9.692976
75.400000 -10.044990
75.420000 -10.317130
75.440000 -10.539310
75.460000 -10.685040
75.480000 -10.817710
75.500000 -10.855610
75.520000 -10.887130
75.540000 -10.754350
75.560000 -10.572210
75.580000 -10.359770
75.600000 -9.954965
75.620000 -9.552438
75.640000 -9.095747
75.660000 -8.678866
75.680000 -8.153964
75.700000 -7.602960
75.720000 -7.056128
75.740000 -6.414844
75.760000 -5.714284
75.780000 -4.898532
75.800000 -4.125000
75.820000 -3.290973
75.840000 -2.379634
75.860000 -1.536939
75.880000 -0.710755
75.900000 0.131800
75.920000 0.941012
75.940000 1.759005
75.960000 2.581717
75.980000 3.392259
76.000000 4.222561
76.020000 5.009270
76.040000 5.742640
76.060000 6.463226
76.080000 7.040668
76.100000 7.580806
76.120000 8.091719
76.140000 8.549349
76.160000 8.962546
76.180000 9.322475
76.200000 9.699558
76.220000 10.018020
76.240000 10.229810
76.260000 10.390300
76.280000 10.475900
76.300000 10.498130
76.320000 10.394040
76.340000 10.259690
76.360000 10.130690
76.380000 9.890171
76.400000 9.610258
76.420000 9.269192
76.440000 8.867436
76.460000 8.386812
76.480000 7.809957
76.500000 7.216145
76.520000 6.588388
76.540000 5.923606
76.560000 5.252425
76.580000 4.620999
76.600000 3.970248
76.620000 3.252366
76.640000 2.593661
76.660000 1.899221
76.680000 1.104151
76.700000 0.326306
76.720000 -0.455740
76.740000 -1.203827
76.760000 -2.002719
76.780000 -2.850245
76.800000 -3.554656
76.820000 -4.308080
76.840000 -5.149220
76.860000 -5.944457
76.880000 -6.742271
76.900000 -7.443069
76.920000 -8.230703
76.940000 -8.895442
76.960000 -9.339713
76.980000 -9.813293
77.000000 -10.172470
77.020000 -10.423110
77.040000 -10.621440
77.060000 -10.656340
77.080000 -10.810810
77.100000 -10.829420
77.120000 -10.699510
77.140000 -10.642990
77.160000 -10.342100
77.180000 -10.051310
77.200000 -9.719708
77.220000 -9.196179
77.240000 -8.747259
77.260000 -8.273567
77.280000 -7.738988
77.300000 -7.231226
77.320000 -6.568755
77.340000 -5.923046
77.360000 -5.314039
77.380000 -4.459862
77.400000 -3.639937
77.420000 -2.835346
77.440000 -1.995690
77.460000 -1.165556
77.480000 -0.298916
77.500000 0.432956
77.520000 1.260513
77.540000 2.023416
77.560000 2.818794
77.580000 3.691441
77.600000 4.392618
77.620000 5.199254
77.640000 5.903413
77.660000 6.551111
77.680000 7.197394
77.700000 7.614610
77.720000 8.083289
77.740000 8.615641
77.760000 8.980037
77.780000 9.304859
77.800000 9.659788
77.820000 9.996779
77.840000 10.251880
77.860000 10.308840
77.880000 10.343310
77.900000 10.379880
77.920000 10.272410
77.940000 10.053860
77.960000 9.831203
77.980000 9.671523
78.000000 9.355159
78.020000 8.939147
78.040000 8.564487
78.060000 8.047174
78.080000 7.555418
78.100000 6.986573
78.120000 6.281938
78.140000 5.703445
78.160000 5.070031
78.180000 4.439949
78.200000 3.820132
78.220000 3.073543
78.240000 2.407655
78.260000 1.774969
78.280000 0.948896
78.300000 0.102295
78.320000 -0.712071
78.340000 -1.527851
78.360000 -2.376231
78.380000 -3.265753
78.400000 -4.109834
78.420000 -4.823053
78.440000 -5.601080
78.460000 -6.440554
78.480000 -7.184119
78.500000 -7.847598
78.520000 -8.450990
78.540000 -8.973525
78.560000 -9.459666
78.580000 -9.813797
78.600000 -10.003910
78.620000 -10.196540
78.640000 -10.371090
78.660000 -10.472400
78.680000 -10.465790
78.700000 -10.416390
78.720000 -10.377460
78.740000 -10.260420
78.760000 -9.978715
78.780000 -9.625046
78.800000 -9.339601
78.820000 -9.019778
78.840000 -8.513893
78.860000 -8.034992
78.880000 -7.578762
78.900000 -7.044155
78.920000 -6.466895
78.940000 -5.799242
78.960000 -5.088837
78.980000 -4.401384
79.000000 -3.573827
79.020000 -2.748035
79.040000 -1.942393
79.060000 -1.108142
79.080000 -0.337313
79.100000 0.470331
79.120000 1.317059
79.140000 2.097312
79.160000 2.893039
79.180000 3.727416
79.200000 4.520049
79.220000 5.273164
79.240000 5.940844
79.260000 6.575057
79.280000 7.219477
79.300000 7.739226
79.320000 8.186284
79.340000 8.641883
79.360000 9.104653
79.380000 9.486062
79.400000 9.779027
79.420000 10.048960
79.440000 10.273770
79.460000 10.408060
79.480000 10.404600
79.500000 10.383570
79.520000 10.291540
79.540000 10.149080
79.560000 9.978421
79.580000 9.701728
79.600000 9.415177
79.620000 9.065723
79.640000 8.657497
79.660000 8.120048
79.680000 7.532719
79.700000 6.991279
79.720000 6.360217
79.740000 5.675130
79.760000 4.975732
79.780000 4.324716
79.800000 3.698513
79.820000 2.931563
79.840000 2.132307
79.860000 1.420039
79.880000 0.668633
79.900000 -0.152707
79.920000 -1.007556
79.940000 -1.809459
79.960000 -2.556525
79.980000 -3.388773
80.000000 -4.249097
80.020000 -5.035498
80.040000 -5.826941
80.060000 -6.637386
80.080000 -7.426979
80.100000 -8.122905
80.120000 -8.710080
80.140000 -9.241424
80.160000 -9.709430
80.180000 -10.062480
80.200000 -10.314630
80.220000 -10.509690
80.240000 -10.668830
80.260000 -10.756970
80.280000 -10.831900
80.300000 -10.793710
80.320000 -10.657640
80.340000 -10.560330
80.360000 -10.232850
80.380000 -9.891642
80.400000 -9.494128
80.420000 -9.030617
80.440000 -8.630499
80.460000 -8.079760
80.480000 -7.535085
80.500000 -7.010645
80.520000 -6.337868
80.540000 -5.634240
80.560000 -4.857810
80.580000 -4.072375
80.600000 -3.255601
80.620000 -2.364860
80.640000 -1.512434
80.660000 -0.698376
80.680000 0.124728
80.700000 0.946642
80.720000 1.770656
80.740000 2.584013
80.760000 3.364995
80.780000 4.212269
80.800000 4.974962
80.820000 5.739714
80.840000 6.427223
80.860000 6.984417
80.880000 7.603016
80.900000 8.092097
80.920000 8.530879
80.940000 8.955265
80.960000 9.327530
80.980000 9.723391
81.000000 9.994006
81.020000 10.201630
81.040000 10.418280
81.060000 10.512640
81.080000 10.505440
81.100000 10.417590
81.120000 10.300540
81.140000 10.157290
81.160000 9.908012
81.180000 9.611448
81.200000 9.285436
81.220000 8.888833
81.240000 8.395088
81.260000 7.819942
81.280000 7.231170
81.300000 6.612081
81.320000 5.949862
81.340000 5.284156
81.360000 4.578779
81.380000 3.950266
81.400000 3.289671
81.420000 2.515467
81.440000 1.809389
81.460000 1.088132
81.480000 0.284310
81.500000 -0.518559
81.520000 -1.335781
81.540000 -2.082721
81.560000 -2.866881
81.580000 -3.697533
81.600000 -4.483948
81.620000 -5.227765
81.640000 -6.020985
81.660000 -6.871284
81.680000 -7.627298
81.700000 -8.300649
81.720000 -8.915971
81.740000 -9.453392
81.760000 -9.912157
81.780000 -10.217860
81.800000 -10.429850
81.820000 -10.649980
81.840000 -10.742780
81.860000 -10.772720
81.880000 -10.791110
81.900000 -10.699220
81.920000 -10.571070
81.940000 -10.344010
81.960000 -9.988181
81.980000 -9.615551
82.000000 -9.179179
82.020000 -8.684258
82.040000 -8.198635
82.060000 -7.658105
82.080000 -7.117827
82.100000 -6.506930
82.120000 -5.856810
82.140000 -5.124252
82.160000 -4.377760
82.180000 -3.586108
82.200000 -2.711766
82.220000 -1.894697
82.240000 -1.077825
82.260000 -0.235551
82.280000 0.506376
82.300000 1.371518
82.320000 2.117547
82.340000 2.872483
82.360000 3.740411
82.380000 4.460352
82.400000 5.218761
82.420000 5.926715
82.440000 6.544669
82.460000 7.162932
82.480000 7.628544
82.500000 8.049807
82.520000 8.533441
82.540000 8.932285
82.560000 9.247151
82.580000 9.599308
82.600000 9.898686
82.620000 10.120410
82.640000 10.255530
82.660000 10.281300
82.680000 10.288880
82.700000 10.173350
82.720000 10.013540
82.740000 9.824342
82.760000 9.601870
82.780000 9.276502
82.800000 8.916853
82.820000 8.551814
82.840000 8.020834
82.860000 7.502948
82.880000 6.943485
82.900000 6.346060
82.920000 5.703669
82.940000 5.008542
82.960000 4.440313
82.980000 3.814867
83.000000 3.108299
83.020000 2.389506
83.040000 1.698328
83.060000 0.990276
83.080000 0.117250
83.100000 -0.722812
83.120000 -1.546154
83.140000 -2.377253
83.160000 -3.253360
83.180000 -4.101026
83.200000 -4.865904
83.220000 -5.626174
83.240000 -6.461433
83.260000 -7.219001
83.280000 -7.840793
83.300000 -8.486936
83.320000 -8.997051
83.340000 -9.449388
83.360000 -9.808546
83.380000 -10.008670
83.400000 -10.240820
83.420000 -10.361200
83.440000 -10.439650
83.460000 -10.502620
83.480000 -10.443090
83.500000 -10.351600
83.520000 -10.223280
83.540000 -9.984932
83.560000 -9.667616
83.580000 -9.305615
83.600000 -8.964507
83.620000 -8.535178
83.640000 -8.011452
83.660000 -7.529876
83.680000 -6.997244
83.700000 -6.430374
83.720000 -5.749334
83.740000 -5.023358
83.760000 -4.341688
83.780000 -3.510882
83.800000 -2.710884
83.820000 -1.890833
83.840000 -1.059803
83.860000 -0.288959
83.880000 0.529439
83.900000 1.336887
83.920000 2.130010
83.940000 2.945776
83.960000 3.726814
83.980000 4.509560
84.000000 5.274690
84.020000 5.948980
84.040000 6.549640
84.060000 7.177131
84.080000 7.712704
84.100000 8.185318
84.120000 8.611944
84.140000 9.062334
84.160000 9.486412
84.180000 9.763245
84.200000 10.021380
84.220000 10.249710
84.240000 10.405890
84.260000 10.405960
84.280000 10.370360
84.300000 10.296930
84.320000 10.164270
84.340000 9.982664
84.360000 9.702862
84.380000 9.425442
84.400000 9.084348
84.420000 8.626312
84.440000 8.130368
84.460000 7.561566
84.480000 6.987498
84.500000 6.346046
84.520000 5.681992
84.540000 4.995323
84.560000 4.301862
84.580000 3.665185
84.600000 2.900839
84.620000 2.139042
84.640000 1.374977
84.660000 0.610673
84.680000 -0.200892
84.700000 -1.033028
84.720000 -1.867895
84.740000 -2.632801
84.760000 -3.447349
84.780000 -4.320473
84.800000 -5.073574
84.820000 -5.913818
84.840000 -6.692685
84.860000 -7.438252
84.880000 -8.175669
84.900000 -8.718832
84.920000 -9.269038
84.940000 -9.737255
84.960000 -10.062160
84.980000 -10.311870
85.000000 -10.533110
85.020000 -10.694970
85.040000 -10.768080
85.060000 -10.821400
85.080000 -10.778040
85.100000 -10.686720
85.120000 -10.515580
85.140000 -10.220310
85.160000 -9.885634
85.180000 -9.478220
85.200000 -9.059632
85.220000 -8.566321
85.240000 -8.075895
85.260000 -7.542689
85.280000 -6.940236
85.300000 -6.329311
85.320000 -5.603391
85.340000 -4.822815
85.360000 -4.061844
85.380000 -3.209796
85.400000 -2.344234
85.420000 -1.510053
85.440000 -0.647530
85.460000 0.149206
85.480000 0.946838
85.500000 1.818869
85.520000 2.578720
85.540000 3.407061
85.560000 4.210168
85.580000 4.964515
85.600000 5.780562
85.620000 6.390996
85.640000 6.972192
85.660000 7.588158
85.680000 8.084914
85.700000 8.506261
85.720000 8.923029
85.740000 9.327628
85.760000 9.703325
85.780000 9.982692
85.800000 10.197700
85.820000 10.400590
85.840000 10.525710
85.860000 10.494180
85.880000 10.421010
85.900000 10.353930
85.920000 10.177580
85.940000 9.912017
85.960000 9.684126
85.980000 9.335512
86.000000 8.909922
86.020000 8.441971
86.040000 7.877440
86.060000 7.289984
86.080000 6.652397
86.100000 5.952453
86.120000 5.301534
86.140000 4.644034
86.160000 3.909908
86.180000 3.241247
86.200000 2.541121
86.220000 1.776943
86.240000 1.008256
86.260000 0.239345
86.280000 -0.550164
86.300000 -1.351829
86.320000 -2.161364
86.340000 -2.935890
86.360000 -3.648521
86.380000 -4.512655
86.400000 -5.306870
86.420000 -6.017302
86.440000 -6.870724
86.460000 -7.651257
86.480000 -8.335728
86.500000 -8.933153
86.520000 -9.429153
86.540000 -9.931565
86.560000 -10.279260
86.580000 -10.466540
86.600000 -10.654180
86.620000 -10.837320
86.640000 -10.838050
86.660000 -10.839110
86.680000 -10.797600
86.700000 -10.617000
86.720000 -10.384450
86.740000 -10.093320
86.760000 -9.691170
86.780000 -9.209692
86.800000 -8.761654
86.820000 -8.246428
86.840000 -7.717619
86.860000 -7.132783
86.880000 -6.463716
86.900000 -5.908328
86.920000 -5.141126
86.940000 -4.295519
86.960000 -3.559908
86.980000 -2.710744
87.000000 -1.839636
87.020000 -0.990136
87.040000 -0.197994
87.060000 0.587763
87.080000 1.397298
87.100000 2.210641
87.120000 2.978278
87.140000 3.729082
87.160000 4.570265
87.180000 5.299868
87.200000 5.934879
87.220000 6.628843
87.240000 7.212518
87.260000 7.661676
87.280000 8.161330
87.300000 8.554922
87.320000 8.955265
87.340000 9.336086
87.360000 9.598649
87.380000 9.953089
87.400000 10.179300
87.420000 10.239750
87.440000 10.375850
87.460000 10.339330
87.480000 10.184660
87.500000 10.074400
87.520000 9.844857
87.540000 9.631347
87.560000 9.334378
87.580000 8.917848
87.600000 8.511372
87.620000 8.023439
87.640000 7.503802
87.660000 6.898254
87.680000 6.278633
87.700000 5.648594
87.720000 5.001008
87.740000 4.386582
87.760000 3.668518
87.780000 3.030328
87.800000 2.381959
87.820000 1.613006
87.840000 0.826745
87.860000 0.073490
87.880000 -0.758814
87.900000 -1.615372
87.920000 -2.471888
87.940000 -3.344256
87.960000 -4.101432
87.980000 -4.916918
88.000000 -5.747640
88.020000 -6.492465
88.040000 -7.233635
88.060000 -7.898333
88.080000 -8.503684
88.100000 -9.053372
88.120000 -9.497251
88.140000 -9.786140
88.160000 -10.064650
88.180000 -10.305820
88.200000 -10.395340
88.220000 -10.477370
88.240000 -10.470090
88.260000 -10.496310
88.280000 -10.427140
88.300000 -10.187830
88.320000 -9.955427
88.340000 -9.693130
88.360000 -9.325066
88.380000 -8.885948
88.400000 -8.475313
88.420000 -7.988248
88.440000 -7.477980
88.460000 -6.913112
88.480000 -6.300058
88.500000 -5.685843
88.520000 -4.950344
88.540000 -4.209258
88.560000 -3.408923
88.580000 -2.606096
88.600000 -1.778680
88.620000 -0.980894
88.640000 -0.198526
88.660000 0.642531
88.680000 1.405462
88.700000 2.203192
88.720000 3.005374
88.740000 3.797839
88.760000 4.565461
88.780000 5.278597
88.800000 5.996984
88.820000 6.604324
88.840000 7.186556
88.860000 7.710435
88.880000 8.189407
88.900000 8.665479
88.920000 9.044550
88.940000 9.430875
88.960000 9.799836
88.980000 10.019200
89.000000 10.236100
89.020000 10.396060
89.040000 10.396770
89.060000 10.383540
89.080000 10.262860
89.100000 10.135400
89.120000 9.972147
89.140000 9.660082
89.160000 9.391386
89.180000 9.047029
89.200000 8.575241
89.220000 8.069706
89.240000 7.510383
89.260000 6.919273
89.280000 6.298966
89.300000 5.590984
89.320000 4.973688
89.340000 4.277342
89.360000 3.560482
89.380000 2.892843
89.400000 2.092985
89.420000 1.364390
89.440000 0.547266
89.460000 -0.305553
89.480000 -1.026769
89.500000 -1.915114
89.520000 -2.756227
89.540000 -3.523583
89.560000 -4.354921
89.580000 -5.168250
89.600000 -5.980614
89.620000 -6.804544
89.640000 -7.503340
89.660000 -8.191199
89.680000 -8.828016
89.700000 -9.315893
89.720000 -9.766634
89.740000 -10.108460
89.760000 -10.343800
89.780000 -10.557240
89.800000 -10.704380
89.820000 -10.774740
89.840000 -10.805590
89.860000 -10.771330
89.880000 -10.666180
89.900000 -10.498510
89.920000 -10.160510
89.940000 -9.823445
89.960000 -9.452076
89.980000 -8.975486
90.000000 -8.496276
90.020000 -7.991609
90.040000 -7.473569
90.060000 -6.861411
90.080000 -6.202231
90.100000 -5.479419
90.120000 -4.731919
90.140000 -3.941373
90.160000 -3.063376
90.180000 -2.234153
90.200000 -1.388406
90.220000 -0.544521
90.240000 0.278443
90.260000 1.073008
90.280000 1.907497
90.300000 2.715169
90.320000 3.515839
90.340000 4.314983
90.360000 5.052345
90.380000 5.821773
90.400000 6.457386
90.420000 7.035991
90.440000 7.597190
90.460000 8.086286
90.480000 8.551590
90.500000 8.921559
90.520000 9.334742
90.540000 9.677614
90.560000 9.973197
90.580000 10.197700
90.600000 10.323770
90.620000 10.476300
90.640000 10.447410
90.660000 10.343910
90.680000 10.252980
90.700000 10.091480
90.720000 9.850388
90.740000 9.583792
90.760000 9.185116
90.780000 8.829458
90.800000 8.376464
90.820000 7.702412
90.840000 7.147948
90.860000 6.558014
90.880000 5.902713
90.900000 5.180559
90.920000 4.483416
90.940000 3.903494
90.960000 3.186984
90.980000 2.433085
91.000000 1.685165
91.020000 1.004055
91.040000 0.253321
91.060000 -0.646605
91.080000 -1.404020
91.100000 -2.131270
91.120000 -2.933369
91.140000 -3.738045
91.160000 -4.519867
91.180000 -5.265840
91.200000 -6.051121
91.220000 -6.895678
91.240000 -7.638248
91.260000 -8.319260
91.280000 -8.959060
91.300000 -9.455381
91.320000 -9.908474
91.340000 -10.276190
91.360000 -10.505340
91.380000 -10.666760
91.400000 -10.767500
91.420000 -10.873350
91.440000 -10.875460
91.460000 -10.732910
91.480000 -10.591740
91.500000 -10.393480
91.520000 -10.062900
91.540000 -9.601240
91.560000 -9.172793
91.580000 -8.746475
91.600000 -8.166553
91.620000 -7.605424
91.640000 -7.063620
91.660000 -6.426817
91.680000 -5.769345
91.700000 -4.997115
91.720000 -4.240653
91.740000 -3.456003
91.760000 -2.575905
91.780000 -1.724837
91.800000 -0.939990
91.820000 -0.102393
91.840000 0.710881
91.860000 1.477341
91.880000 2.267397
91.900000 3.012166
91.920000 3.827260
91.940000 4.595933
91.960000 5.274844
91.980000 5.997852
92.000000 6.623550
92.020000 7.206944
92.040000 7.696978
92.060000 8.123451
92.080000 8.545274
92.100000 8.960026
92.120000 9.317840
92.140000 9.598803
92.160000 9.936229
92.180000 10.170060
92.200000 10.286690
92.220000 10.334550
92.240000 10.295370
92.260000 10.218160
92.280000 10.014820
92.300000 9.827520
92.320000 9.558670
92.340000 9.270803
92.360000 8.896016
92.380000 8.411220
92.400000 7.986092
92.420000 7.431208
92.440000 6.815046
92.460000 6.251523
92.480000 5.590676
92.500000 4.925684
92.520000 4.348647
92.540000 3.658814
92.560000 2.991231
92.580000 2.349107
92.600000 1.559639
92.620000 0.869049
92.640000 0.050034
92.660000 -0.823776
92.680000 -1.582492
92.700000 -2.495134
92.720000 -3.340951
92.740000 -4.138653
92.760000 -4.946339
92.780000 -5.741380
92.800000 -6.525975
92.820000 -7.263868
92.840000 -7.911062
92.860000 -8.528918
92.880000 -9.066283
92.900000 -9.503791
92.920000 -9.840039
92.940000 -10.102270
92.960000 -10.328670
92.980000 -10.436050
93.000000 -10.504850
93.020000 -10.542710
93.040000 -10.504890
93.060000 -10.420840
93.080000 -10.243500
93.100000 -9.972707
93.120000 -9.665698
93.140000 -9.313149
93.160000 -8.905889
93.180000 -8.448343
93.200000 -7.937458
93.220000 -7.422022
93.240000 -6.886253
93.260000 -6.225953
93.280000 -5.574138
93.300000 -4.876154
93.320000 -4.085846
93.340000 -3.301070
93.360000 -2.495960
93.380000 -1.660421
93.400000 -0.848660
93.420000 -0.071277
93.440000 0.757946
93.460000 1.518385
93.480000 2.358853
93.500000 3.138070
93.520000 3.867268
93.540000 4.689811
93.560000 5.387879
93.580000 6.045477
93.600000 6.641545
93.620000 7.225989
93.640000 7.785452
93.660000 8.233531
93.680000 8.676626
93.700000 9.090663
93.720000 9.485166
93.740000 9.780371
93.760000 10.016890
93.780000 10.240470
93.800000 10.345450
93.820000 10.380470
93.840000 10.316840
93.860000 10.221440
93.880000 10.051130
93.900000 9.885144
93.920000 9.615663
93.940000 9.278406
93.960000 8.900988
93.980000 8.491179
94.000000 7.995516
94.020000 7.401101
94.040000 6.815158
94.060000 6.193689
94.080000 5.554841
94.100000 4.878717
94.120000 4.191908
94.140000 3.547431
94.160000 2.818444
94.180000 2.077357
94.200000 1.302943
94.220000 0.507706
94.240000 -0.251206
94.260000 -1.107442
94.280000 -1.925323
94.300000 -2.747292
94.320000 -3.588783
94.340000 -4.371613
94.360000 -5.215806
94.380000 -6.052983
94.400000 -6.790988
94.420000 -7.547996
94.440000 -8.219500
94.460000 -8.816141
94.480000 -9.324688
94.500000 -9.735812
94.520000 -10.068690
94.540000 -10.342060
94.560000 -10.517720
94.580000 -10.654940
94.600000 -10.763300
94.620000 -10.797590
94.640000 -10.745050
94.660000 -10.584630
94.680000 -10.441440
94.700000 -10.154630
94.720000 -9.757462
94.740000 -9.381793
94.760000 -8.933335
94.780000 -8.477148
94.800000 -7.962300
94.820000 -7.369440
94.840000 -6.820690
94.860000 -6.168987
94.880000 -5.421291
94.900000 -4.658290
94.920000 -3.865559
94.940000 -3.030328
94.960000 -2.185463
94.980000 -1.334129
95.000000 -0.508140
95.020000 0.270083
95.040000 1.114878
95.060000 1.922368
95.080000 2.724817
95.100000 3.531355
95.120000 4.324183
95.140000 5.073924
95.160000 5.815780
95.180000 6.469821
95.200000 7.028177
95.220000 7.594292
95.240000 8.089521
95.260000 8.545904
95.280000 8.975192
95.300000 9.320529
95.320000 9.702610
95.340000 10.020290
95.360000 10.206490
95.380000 10.374630
95.400000 10.489140
95.420000 10.486690
95.440000 10.390920
95.460000 10.284830
95.480000 10.107740
95.500000 9.873732
95.520000 9.581719
95.540000 9.213403
95.560000 8.814573
95.580000 8.303450
95.600000 7.712536
95.620000 7.146184
95.640000 6.508387
95.660000 5.844837
95.680000 5.167326
95.700000 4.492588
95.720000 3.826714
95.740000 3.118144
95.760000 2.414782
95.780000 1.647986
95.800000 0.930566
95.820000 0.144375
95.840000 -0.667624
95.860000 -1.417309
95.880000 -2.217433
95.900000 -3.003778
95.920000 -3.727626
95.940000 -4.571903
95.960000 -5.345911
95.980000 -6.092585
96.000000 -6.937436
96.020000 -7.660373
96.040000 -8.359660
96.060000 -8.994082
96.080000 -9.462299
96.100000 -9.952038
96.120000 -10.290980
96.140000 -10.530130
96.160000 -10.729310
96.180000 -10.828860
96.200000 -10.915270
96.220000 -10.902350
96.240000 -10.825440
96.260000 -10.657350
96.280000 -10.402830
96.300000 -10.090220
96.320000 -9.662029
96.340000 -9.206611
96.360000 -8.706425
96.380000 -8.200777
96.400000 -7.663006
96.420000 -7.042195
96.440000 -6.387888
96.460000 -5.746883
96.480000 -5.003095
96.500000 -4.177890
96.520000 -3.371170
96.540000 -2.528560
96.560000 -1.665490
96.580000 -0.815458
96.600000 -0.001022
96.620000 0.775983
96.640000 1.585657
96.660000 2.385109
96.680000 3.147985
96.700000 3.913913
96.720000 4.727662
96.740000 5.421459
96.760000 6.080850
96.780000 6.742593
96.800000 7.300921
96.820000 7.801681
96.840000 8.234609
96.860000 8.617209
96.880000 9.075064
96.900000 9.404703
96.920000 9.675052
96.940000 10.033550
96.960000 10.218720
96.980000 10.324120
97.000000 10.393830
97.020000 10.323530
97.040000 10.224330
97.060000 10.059120
97.080000 9.812229
97.100000 9.571007
97.120000 9.245611
97.140000 8.839933
97.160000 8.374167
97.180000 7.894972
97.200000 7.341335
97.220000 6.723352
97.240000 6.133082
97.260000 5.498450
97.280000 4.843204
97.300000 4.218542
97.320000 3.565397
97.340000 2.900629
97.360000 2.220934
97.380000 1.473588
97.400000 0.746449
97.420000 -0.056952
97.440000 -0.892477
97.460000 -1.699883
97.480000 -2.546666
97.500000 -3.394724
97.520000 -4.226174
97.540000 -4.975256
97.560000 -5.778601
97.580000 -6.567593
97.600000 -7.304100
97.620000 -7.978712
97.640000 -8.526006
97.660000 -9.109190
97.680000 -9.574186
97.700000 -9.823992
97.720000 -10.147010
97.740000 -10.336890
97.760000 -10.428170
97.780000 -10.535450
97.800000 -10.506250
97.820000 -10.494860
97.840000 -10.425930
97.860000 -10.164670
97.880000 -9.953453
97.900000 -9.628519
97.920000 -9.221455
97.940000 -8.866903
97.960000 -8.365121
97.980000 -7.854642
98.000000 -7.343715
98.020000 -6.748614
98.040000 -6.185483
98.060000 -5.466732
98.080000 -4.727396
98.100000 -4.031065
98.120000 -3.188623
98.140000 -2.391887
98.160000 -1.547568
98.180000 -0.764430
98.200000 0.003557
98.220000 0.863658
98.240000 1.606620
98.260000 2.390473
98.280000 3.232355
98.300000 3.980807
98.320000 4.738557
98.340000 5.471395
98.360000 6.106574
98.380000 6.757828
98.400000 7.297182
98.420000 7.803796
98.440000 8.331499
98.460000 8.719280
98.480000 9.107103
98.500000 9.521771
98.520000 9.819651
98.540000 10.066390
98.560000 10.244820
98.580000 10.367900
98.600000 10.386110
98.620000 10.292890
98.640000 10.187080
98.660000 10.048240
98.680000 9.811024
98.700000 9.519922
98.720000 9.234296
98.740000 8.823717
98.760000 8.375889
98.780000 7.834869
98.800000 7.320582
98.820000 6.730214
98.840000 6.039750
98.860000 5.424988
98.880000 4.783662
98.900000 4.125140
98.920000 3.413601
98.940000 2.689150
98.960000 2.025419
98.980000 1.232352
99.000000 0.454395
99.020000 -0.321587
99.040000 -1.143081
99.060000 -1.956788
99.080000 -2.770566
99.100000 -3.624127
99.120000 -4.398821
99.140000 -5.204239
99.160000 -6.034191
99.180000 -6.806392
99.200000 -7.565095
99.220000 -8.189799
99.240000 -8.798455
99.260000 -9.313919
99.280000 -9.751258
99.300000 -10.069750
99.320000 -10.298780
99.340000 -10.531580
99.360000 -10.667500
99.380000 -10.754180
99.400000 -10.769540
99.420000 -10.697260
99.440000 -10.619410
99.460000 -10.393960
99.480000 -10.084260
99.500000 -9.766228
99.520000 -9.324996
99.540000 -8.904208
99.560000 -8.441243
99.580000 -7.873183
99.600000 -7.374019
99.620000 -6.750015
99.640000 -6.069661
99.660000 -5.381074
99.680000 -4.590766
99.700000 -3.819502
99.720000 -2.962314
99.740000 -2.105126
99.760000 -1.281798
99.780000 -0.479265
99.800000 0.366468
99.820000 1.190468
99.840000 1.972150
99.860000 2.789807
99.880000 3.589259
99.900000 4.422711
99.920000 5.150900
99.940000 5.841224
99.960000 6.542793
99.980000 7.142067
100.000000 7.650501
100.020000 8.145548
100.040000 8.623217
100.060000 9.028516
100.080000 9.424910
100.100000 9.740489
100.120000 10.040250
100.140000 10.315430
100.160000 10.402880
100.180000 10.523660
100.200000 10.498090
100.220000 10.407080
100.240000 10.307810
100.260000 10.060630
100.280000 9.865526
100.300000 9.507081
100.320000 9.166337
100.340000 8.766079
100.360000 8.173961
100.380000 7.676841
100.400000 7.033401
100.420000 6.405798
100.440000 5.790238
100.460000 5.028917
100.480000 4.410234
100.500000 3.780713
100.520000 3.002854
100.540000 2.337232
100.560000 1.618089
100.580000 0.810907
100.600000 0.132976
100.620000 -0.741044
100.640000 -1.506958
100.660000 -2.228216
100.680000 -3.070812
100.700000 -3.764231
100.720000 -4.582798
100.740000 -5.366300
100.760000 -6.120325
100.780000 -6.935713
100.800000 -7.644018
100.820000 -8.401782
100.840000 -8.962182
100.860000 -9.480447
100.880000 -9.965748
100.900000 -10.252300
100.920000 -10.561900
100.940000 -10.703260
100.960000 -10.788810
100.980000 -10.931800
101.000000 -10.867160
101.020000 -10.760270
101.040000 -10.668620
101.060000 -10.318130
101.080000 -10.036210
101.100000 -9.639441
101.120000 -9.096881
101.140000 -8.713245
101.160000 -8.091453
101.180000 -7.577460
101.200000 -6.987974
101.220000 -6.298364
101.240000 -5.714354
101.260000 -4.904371
101.280000 -4.160204
101.300000 -3.352756
101.320000 -2.451093
101.340000 -1.682210
101.360000 -0.792100
101.380000 0.026676
101.400000 0.768351
101.420000 1.638044
101.440000 2.375825
101.460000 3.134570
101.480000 3.998941
101.500000 4.671607
101.520000 5.436709
101.540000 6.147506
101.560000 6.711995
101.580000 7.391607
101.600000 7.810952
101.620000 8.244832
101.640000 8.724867
101.660000 9.087274
101.680000 9.440355
101.700000 9.757742
101.720000 10.066770
101.740000 10.284860
101.760000 10.405790
101.780000 10.410980
101.800000 10.409890
101.820000 10.297030
101.840000 10.058370
101.860000 9.840684
101.880000 9.603859
101.900000 9.263493
101.920000 8.799981
101.940000 8.368874
101.960000 7.892423
101.980000 7.314126
102.000000 6.720818
102.020000 6.072154
102.040000 5.448066
102.060000 4.833514
102.080000 4.165861
102.100000 3.488813
102.120000 2.876501
102.140000 2.151043
102.160000 1.456042
102.180000 0.710223
102.200000 -0.153029
102.220000 -0.922486
102.240000 -1.755168
102.260000 -2.611880
102.280000 -3.471659
102.300000 -4.299650
102.320000 -5.017966
102.340000 -5.824854
102.360000 -6.667353
102.380000 -7.363012
102.400000 -8.004772
102.420000 -8.615543
102.440000 -9.175426
102.460000 -9.629303
102.480000 -9.908656
102.500000 -10.163910
102.520000 -10.379760
102.540000 -10.485410
102.560000 -10.541360
102.580000 -10.523600
102.600000 -10.505200
102.620000 -10.408910
102.640000 -10.182770
102.660000 -9.920727
102.680000 -9.552326
102.700000 -9.178338
102.720000 -8.786594
102.740000 -8.290763
102.760000 -7.750625
102.780000 -7.232179
102.800000 -6.686817
102.820000 -6.050841
102.840000 -5.347563
102.860000 -4.629009
102.880000 -3.915845
102.900000 -3.090179
102.920000 -2.253688
102.940000 -1.473770
102.960000 -0.680788
102.980000 0.093010
103.000000 0.916716
103.020000 1.688876
103.040000 2.451009
103.060000 3.231837
103.080000 4.048093
103.100000 4.780525
103.120000 5.488983
103.140000 6.169393
103.160000 6.741557
103.180000 7.351137
103.200000 7.859669
103.220000 8.296532
103.240000 8.724027
103.260000 9.153356
103.280000 9.530355
103.300000 9.802426
103.320000 10.077560
103.340000 10.273220
103.360000 10.390250
103.380000 10.370040
103.400000 10.263870
103.420000 10.220060
103.440000 10.006620
103.460000 9.751118
103.480000 9.483150
103.500000 9.174683
103.520000 8.810736
103.540000 8.309037
103.560000 7.774221
103.580000 7.259975
103.600000 6.670209
103.620000 5.994939
103.640000 5.387333
103.660000 4.686689
103.680000 4.088311
103.700000 3.433275
103.720000 2.649199
103.740000 2.003238
103.760000 1.208729
103.780000 0.468763
103.800000 -0.336487
103.820000 -1.263552
103.840000 -1.993617
103.860000 -2.822533
103.880000 -3.672201
103.900000 -4.502222
103.920000 -5.301058
103.940000 -6.060895
103.960000 -6.854200
103.980000 -7.616347
104.000000 -8.268386
104.020000 -8.806171
104.040000 -9.340105
104.060000 -9.767166
104.080000 -10.089870
104.100000 -10.312400
104.120000 -10.495760
104.140000 -10.657540
104.160000 -10.707630
104.180000 -10.795100
104.200000 -10.633760
104.220000 -10.555510
104.240000 -10.406340
104.260000 -10.037630
104.280000 -9.733474
104.300000 -9.277048
104.320000 -8.849007
104.340000 -8.415057
104.360000 -7.848495
104.380000 -7.284341
104.400000 -6.717877
104.420000 -6.094167
104.440000 -5.320677
104.460000 -4.579185
104.480000 -3.763517
104.500000 -2.943970
104.520000 -2.117127
104.540000 -1.214792
104.560000 -0.441246
104.580000 0.355588
104.600000 1.197680
104.620000 2.001543
104.640000 2.787006
104.660000 3.624057
104.680000 4.398513
104.700000 5.157916
104.720000 5.939402
104.740000 6.505334
104.760000 7.166755
104.780000 7.713376
104.800000 8.165167
104.820000 8.682451
104.840000 9.047225
104.860000 9.455017
104.880000 9.808308
104.900000 10.117800
104.920000 10.332540
104.940000 10.471520
104.960000 10.568790
104.980000 10.526880
105.000000 10.456160
105.020000 10.278640
105.040000 10.079550
105.060000 9.884262
105.080000 9.521715
105.100000 9.133794
105.120000 8.761962
105.140000 8.204782
105.160000 7.655542
105.180000 7.039870
105.200000 6.344729
105.220000 5.747346
105.240000 5.052527
105.260000 4.338047
105.280000 3.707083
105.300000 2.979342
105.320000 2.288514
105.340000 1.566641
105.360000 0.772762
105.380000 0.018470
105.400000 -0.753423
105.420000 -1.523538
105.440000 -2.346656
105.460000 -3.105751
105.480000 -3.828772
105.500000 -4.646149
105.520000 -5.387641
105.540000 -6.225308
105.560000 -7.008559
105.580000 -7.679768
105.600000 -8.463326
105.620000 -9.040755
105.640000 -9.565910
105.660000 -10.003490
105.680000 -10.330020
105.700000 -10.608590
105.720000 -10.776110
105.740000 -10.855840
105.760000 -10.920780
105.780000 -10.963010
105.800000 -10.835020
105.820000 -10.682150
105.840000 -10.412930
105.860000 -10.080280
105.880000 -9.660796
105.900000 -9.171183
105.920000 -8.688683
105.940000 -8.131195
105.960000 -7.615115
105.980000 -6.967193
106.000000 -6.353551
106.020000 -5.691430
106.040000 -4.907802
106.060000 -4.161660
106.080000 -3.277208
106.100000 -2.474955
106.120000 -1.613944
106.140000 -0.718947
106.160000 0.047233
106.180000 0.893177
106.200000 1.659329
106.220000 2.450743
106.240000 3.263681
106.260000 4.017384
106.280000 4.808854
106.300000 5.555738
106.320000 6.226121
106.340000 6.881128
106.360000 7.418857
106.380000 7.927362
106.400000 8.385062
106.420000 8.760520
106.440000 9.206611
106.460000 9.528955
106.480000 9.830685
106.500000 10.182310
106.520000 10.327480
106.540000 10.429370
106.560000 10.479200
106.580000 10.405090
106.600000 10.299660
106.620000 10.056350
106.640000 9.803967
106.660000 9.589267
106.680000 9.210826
106.700000 8.795682
106.720000 8.315241
106.740000 7.827896
106.760000 7.283655
106.780000 6.587842
106.800000 5.985613
106.820000 5.352549
106.840000 4.708338
106.860000 4.055809
106.880000 3.380119
106.900000 2.776966
106.920000 2.069235
106.940000 1.309175
106.960000 0.595717
106.980000 -0.213817
107.000000 -1.024710
107.020000 -1.829932
107.040000 -2.680860
107.060000 -3.480383
107.080000 -4.302100
107.100000 -5.093304
107.120000 -5.850018
107.140000 -6.665532
107.160000 -7.394113
107.180000 -8.065673
107.200000 -8.678362
107.220000 -9.214845
107.240000 -9.682039
107.260000 -9.951366
107.280000 -10.234120
107.300000 -10.447660
107.320000 -10.502340
107.340000 -10.603190
107.360000 -10.606300
107.380000 -10.555840
107.400000 -10.461840
107.420000 -10.199810
107.440000 -9.972259
107.460000 -9.602458
107.480000 -9.156339
107.500000 -8.763069
107.520000 -8.284910
107.540000 -7.770286
107.560000 -7.218035
107.580000 -6.644849
107.600000 -6.071103
107.620000 -5.339750
107.640000 -4.593664
107.660000 -3.864887
107.680000 -3.024825
107.700000 -2.229420
107.720000 -1.378449
107.740000 -0.590970
107.760000 0.148044
107.780000 1.012289
107.800000 1.731894
107.820000 2.510762
107.840000 3.350725
107.860000 4.060962
107.880000 4.841188
107.900000 5.579935
107.920000 6.203253
107.940000 6.825829
107.960000 7.370952
107.980000 7.858101
108.000000 8.356873
108.020000 8.760744
108.040000 9.145683
108.060000 9.566554
108.080000 9.858804
108.100000 10.119970
108.120000 10.305670
108.140000 10.380600
108.160000 10.387070
108.180000 10.284620
108.200000 10.158570
108.220000 9.983294
108.240000 9.749886
108.260000 9.480195
108.280000 9.139381
108.300000 8.739221
108.320000 8.277600
108.340000 7.772764
108.360000 7.187424
108.380000 6.557566
108.400000 5.944625
108.420000 5.294029
108.440000 4.631753
108.460000 3.976704
108.480000 3.307287
108.500000 2.627270
108.520000 1.880022
108.540000 1.130100
108.560000 0.372125
108.580000 -0.457098
108.600000 -1.280846
108.620000 -2.086866
108.640000 -2.931031
108.660000 -3.694368
108.680000 -4.527582
108.700000 -5.336221
108.720000 -6.121067
108.740000 -6.929636
108.760000 -7.609527
108.780000 -8.276886
108.800000 -8.912793
108.820000 -9.344110
108.840000 -9.769070
108.860000 -10.085800
108.880000 -10.312840
108.900000 -10.532700
108.920000 -10.593220
108.940000 -10.710450
108.960000 -10.752640
108.980000 -10.635230
109.000000 -10.541870
109.020000 -10.320510
109.040000 -10.009400
109.060000 -9.656245
109.080000 -9.192356
109.100000 -8.822737
109.120000 -8.318462
109.140000 -7.758201
109.160000 -7.288738
109.180000 -6.659721
109.200000 -5.983890
109.220000 -5.303691
109.240000 -4.491468
109.260000 -3.727444
109.280000 -2.885072
109.300000 -1.973872
109.320000 -1.226205
109.340000 -0.389182
109.360000 0.453807
109.380000 1.227129
109.400000 2.013278
109.420000 2.845652
109.440000 3.646196
109.460000 4.412097
109.480000 5.196803
109.500000 5.905850
109.520000 6.532234
109.540000 7.154334
109.560000 7.660668
109.580000 8.168766
109.600000 8.641505
109.620000 9.007623
109.640000 9.421997
109.660000 9.811963
109.680000 10.051600
109.700000 10.311630
109.720000 10.454120
109.740000 10.507370
109.760000 10.521440
109.780000 10.404290
109.800000 10.255460
109.820000 10.084230
109.840000 9.833276
109.860000 9.520861
109.880000 9.163775
109.900000 8.711242
109.920000 8.209964
109.940000 7.672178
109.960000 7.008853
109.980000 6.348594
110.000000 5.725584
110.020000 5.047905
110.040000 4.355901
110.060000 3.683347
110.080000 2.961250
110.100000 2.287226
110.120000 1.551279
110.140000 0.733566
110.160000 -0.003823
110.180000 -0.760369
110.200000 -1.579734
110.220000 -2.353308
110.240000 -3.112780
110.260000 -3.861540
110.280000 -4.616532
110.300000 -5.394461
110.320000 -6.229832
110.340000 -6.963216
110.360000 -7.746060
110.380000 -8.491263
110.400000 -9.060094
110.420000 -9.619850
110.440000 -10.053760
110.460000 -10.393410
110.480000 -10.674780
110.500000 -10.830950
110.520000 -10.933520
110.540000 -11.015380
110.560000 -10.995860
110.580000 -10.884400
110.600000 -10.738270
110.620000 -10.446290
110.640000 -10.088700
110.660000 -9.656007
110.680000 -9.177792
110.700000 -8.656573
110.720000 -8.104056
110.740000 -7.558807
110.760000 -6.898268
110.780000 -6.301417
110.800000 -5.600408
110.820000 -4.835250
110.840000 -4.080763
110.860000 -3.174927
110.880000 -2.374355
110.900000 -1.505222
110.920000 -0.616050
110.940000 0.139123
110.960000 0.943239
110.980000 1.759621
111.000000 2.514318
111.020000 3.333543
111.040000 4.075498
111.060000 4.820645
111.080000 5.612115
111.100000 6.237029
111.120000 6.847632
111.140000 7.471146
111.160000 7.931493
111.180000 8.352798
111.200000 8.791439
111.220000 9.183282
111.240000 9.521407
111.260000 9.852768
111.280000 10.113610
111.300000 10.327680
111.320000 10.439690
111.340000 10.430800
111.360000 10.391870
111.380000 10.248080
111.400000 10.038330
111.420000 9.788409
111.440000 9.546683
111.460000 9.182553
111.480000 8.739781
111.500000 8.295902
111.520000 7.753160
111.540000 7.210165
111.560000 6.595754
111.580000 5.928745
111.600000 5.299952
111.620000 4.667672
111.640000 4.009584
111.660000 3.376506
111.680000 2.695998
111.700000 2.006738
111.720000 1.316414
111.740000 0.536861
111.760000 -0.265924
111.780000 -1.020859
111.800000 -1.859619
111.820000 -2.676057
111.840000 -3.476112
111.860000 -4.309074
111.880000 -5.074288
111.900000 -5.863153
111.920000 -6.658531
111.940000 -7.397698
111.960000 -8.089941
111.980000 -8.694270
112.000000 -9.206527
112.020000 -9.665768
112.040000 -10.009650
112.060000 -10.230090
112.080000 -10.416800
112.100000 -10.529370
112.120000 -10.588480
112.140000 -10.585020
112.160000 -10.531890
112.180000 -10.422190
112.200000 -10.201200
112.220000 -9.891152
112.240000 -9.550548
112.260000 -9.145823
112.280000 -8.674021
112.300000 -8.209179
112.320000 -7.717787
112.340000 -7.179400
112.360000 -6.598512
112.380000 -5.982434
112.400000 -5.305399
112.420000 -4.570475
112.440000 -3.793792
112.460000 -2.962328
112.480000 -2.174961
112.500000 -1.345149
112.520000 -0.527843
112.540000 0.194633
112.560000 1.011813
112.580000 1.782937
112.600000 2.524485
112.620000 3.338543
112.640000 4.104289
112.660000 4.853763
112.680000 5.553133
112.700000 6.209835
112.720000 6.828349
112.740000 7.377057
112.760000 7.864515
112.780000 8.334075
112.800000 8.751740
112.820000 9.170945
112.840000 9.527050
112.860000 9.861409
112.880000 10.162310
112.900000 10.265270
112.920000 10.386250
112.940000 10.414220
112.960000 10.265360
112.980000 10.167100
113.000000 9.976278
113.020000 9.740055
113.040000 9.515988
113.060000 9.092400
113.080000 8.732765
113.100000 8.313981
113.120000 7.726259
113.140000 7.179778
113.160000 6.545579
113.180000 5.919279
113.200000 5.309390
113.220000 4.583890
113.240000 3.951918
113.260000 3.310732
113.280000 2.588200
113.300000 1.895328
113.320000 1.063934
113.340000 0.337747
113.360000 -0.458022
113.380000 -1.357290
113.400000 -2.152359
113.420000 -3.029180
113.440000 -3.811912
113.460000 -4.577224
113.480000 -5.480988
113.500000 -6.229734
113.520000 -6.982989
113.540000 -7.713362
113.560000 -8.341721
113.580000 -8.955783
113.600000 -9.447175
113.620000 -9.778943
113.640000 -10.113580
113.660000 -10.369930
113.680000 -10.510450
113.700000 -10.607910
113.720000 -10.654140
113.740000 -10.692760
113.760000 -10.609030
113.780000 -10.459550
113.800000 -10.195930
113.820000 -9.951128
113.840000 -9.571231
113.860000 -9.111864
113.880000 -8.735720
113.900000 -8.208171
113.920000 -7.711710
113.940000 -7.190981
113.960000 -6.531310
113.980000 -5.918425
114.000000 -5.184396
114.020000 -4.394452
114.040000 -3.655411
114.060000 -2.727618
114.080000 -1.932353
114.100000 -1.175695
114.120000 -0.299518
114.140000 0.484503
114.160000 1.271982
114.180000 2.037266
114.200000 2.859893
114.220000 3.738115
114.240000 4.437625
114.260000 5.158910
114.280000 5.912739
114.300000 6.593597
114.320000 7.127629
114.340000 7.615465
114.360000 8.175319
114.380000 8.651224
114.400000 8.992822
114.420000 9.421997
114.440000 9.768846
114.460000 10.060090
114.480000 10.308590
114.500000 10.370560
114.520000 10.485050
114.540000 10.474480
114.560000 10.341790
114.580000 10.243080
114.600000 10.007740
114.620000 9.728475
114.640000 9.547593
114.660000 9.079965
114.680000 8.655999
114.700000 8.144624
114.720000 7.610423
114.740000 7.025741
114.760000 6.236763
114.780000 5.656982
114.800000 5.016902
114.820000 4.322447
114.840000 3.603010
114.860000 2.889637
114.880000 2.269344
114.900000 1.490336
114.920000 0.685675
114.940000 -0.039335
114.960000 -0.808190
114.980000 -1.621758
115.000000 -2.380334
115.020000 -3.139709
115.040000 -3.904293
115.060000 -4.657744
115.080000 -5.467012
115.100000 -6.146049
115.120000 -7.185687
115.140000 -7.685636
115.160000 -8.470048
115.180000 -9.088185
115.200000 -9.557297
115.220000 -10.308550
115.240000 -10.037190
115.260000 -10.711660
115.280000 -10.928470
115.300000 -10.817820
115.320000 -10.956360
115.340000 -10.814730
115.360000 -11.093340
115.380000 -10.641840
115.400000 -10.315830
115.420000 -9.980801
115.440000 -9.799486
115.460000 -9.127422
115.480000 -8.534240
115.500000 -8.173037
115.520000 -7.467757
115.540000 -7.139532
115.560000 -6.054902
115.580000 -5.718261
115.600000 -4.870707
115.620000 -3.934106
115.640000 -3.458719
115.660000 -2.099567
115.680000 -1.616451
115.700000 -0.632910
115.720000 0.149024
115.740000 0.880350
115.760000 1.934439
115.780000 2.412402
115.800000 3.251134
115.820000 4.163019
115.840000 4.957976
115.860000 5.506306
115.880000 6.275833
115.900000 6.886197
115.920000 7.567223
115.940000 7.981597
115.960000 8.224219
115.980000 8.994026
116.000000 9.151550
116.020000 9.623309
116.040000 9.847993
116.060000 10.090210
116.080000 10.520280
116.100000 10.350810
116.120000 10.568490
116.140000 10.327440
116.160000 10.276230
116.180000 10.193080
116.200000 9.771843
116.220000 9.537483
116.240000 9.170286
116.260000 8.872183
116.280000 8.314303
116.300000 7.722590
116.320000 7.129100
116.340000 6.696732
116.360000 5.956122
116.380000 5.167032
116.400000 4.642340
116.420000 3.970374
116.440000 3.433751
116.460000 2.534189
116.480000 1.926975
116.500000 1.296152
116.520000 0.468987
116.540000 -0.309068
116.560000 -1.203113
116.580000 -1.830422
116.600000 -2.788938
116.620000 -3.563703
116.640000 -4.196277
116.660000 -5.468623
116.680000 -5.819127
116.700000 -6.297748
116.720000 -8.298591
116.740000 -7.506659
116.760000 -9.083802
116.780000 -9.335428
116.800000 -9.100508
116.820000 -11.285000
116.840000 -9.288853
116.860000 -10.447740
116.880000 -11.254740
116.900000 -10.195880
116.920000 -10.750440
116.940000 -10.343450
116.960000 -10.570240
116.980000 -10.455800
117.000000 -9.628673
117.020000 -9.101558
117.040000 -9.814049
117.060000 -8.365205
117.080000 -8.015653
117.100000 -7.930666
117.120000 -6.739190
117.140000 -7.169864
117.160000 -5.253853
117.180000 -5.568915
117.200000 -4.526826
117.220000 -3.254480
117.240000 -3.667370
117.260000 -1.429996
117.280000 -1.613188
117.300000 -0.535055
117.320000 0.611317
117.340000 0.373484
117.360000 2.338688
117.380000 2.805042
117.400000 2.628796
117.420000 4.544624
117.440000 5.070283
117.460000 5.233506
117.480000 6.615036
117.500000 6.381138
117.520000 7.738106
117.540000 8.166343
117.560000 7.772806
117.580000 9.259740
117.600000 9.042366
117.620000 9.695959
117.640000 9.872695
117.660000 10.014720
117.680000 10.666060
117.700000 10.073220
117.720000 10.634650
117.740000 10.297280
117.760000 9.966910
117.780000 10.179070
117.800000 9.677390
117.820000 9.534878
117.840000 9.074055
117.860000 8.526412
117.880000 8.522953
117.900000 7.747376
117.920000 6.727203
117.940000 6.778021
117.960000 5.897392
117.980000 5.153057
118.000000 4.604517
118.020000 3.712348
118.040000 3.547291
118.060000 2.475599
118.080000 1.639374
118.100000 1.113142
118.120000 0.383678
118.140000 -0.538401
118.160000 -1.582282
118.180000 -2.003994
118.200000 -3.131111
118.220000 -3.916251
118.240000 -4.553195
118.260000 -5.632196
118.280000 -6.253343
118.300000 -7.056044
118.320000 -7.802060
118.340000 -8.356663
118.360000 -9.054661
118.380000 -9.556191
118.400000 -9.686268
118.420000 -10.214530
118.440000 -10.511500
118.460000 -10.463120
118.480000 -10.590510
118.500000 -10.673720
118.520000 -10.838140
118.540000 -10.514720
118.560000 -10.361750
118.580000 -10.320000
118.600000 -9.930585
118.620000 -9.541040
118.640000 -8.969086
118.660000 -8.795066
118.680000 -8.256903
118.700000 -7.524989
118.720000 -7.205880
118.740000 -6.518315
118.760000 -5.863265
118.780000 -5.163909
118.800000 -4.323273
118.820000 -3.598319
118.840000 -2.741131
118.860000 -1.828812
118.880000 -1.167293
118.900000 -0.266680
118.920000 0.631454
118.940000 1.228823
118.960000 2.105854
118.980000 2.982227
119.000000 3.779901
119.020000 4.427430
119.040000 5.206129
119.060000 6.090442
119.080000 6.559947
119.100000 7.152051
119.120000 7.675021
119.140000 8.262896
119.160000 8.722151
119.180000 8.947395
119.200000 9.490151
119.220000 9.856437
119.240000 10.076930
119.260000 10.260220
119.280000 10.449200
119.300000 10.502130
119.320000 10.442980
119.340000 10.365940
119.360000 10.228250
119.380000 10.041690
119.400000 9.741372
119.420000 9.526140
119.440000 9.126960
119.460000 8.624715
119.480000 8.150645
119.500000 7.634341
119.520000 6.982877
119.540000 6.232198
119.560000 5.657710
119.580000 5.012631
119.600000 4.282958
119.620000 3.579078
119.640000 2.857079
119.660000 2.258155
119.680000 1.445203
119.700000 0.586517
119.720000 -0.110122
119.740000 -0.869371
119.760000 -1.724865
119.780000 -2.510089
119.800000 -3.221782
119.820000 -4.011236
119.840000 -4.763819
119.860000 -5.614006
119.880000 -6.361113
119.900000 -7.140260
119.920000 -7.954416
119.940000 -8.567960
119.960000 -9.171057
119.980000 -9.717510
120.000000 -10.114280
120.020000 -10.404980
120.040000 -10.647430
120.060000 -10.837670
120.080000 -10.909380
120.100000 -10.941490
120.120000 -10.890910
120.140000 -10.877510
120.160000 -10.621290
120.180000 -10.286910
120.200000 -10.019650
120.220000 -9.556793
120.240000 -9.054759
120.260000 -8.501962
120.280000 -8.041615
120.300000 -7.451975
120.320000 -6.788328
120.340000 -6.183999
120.360000 -5.479013
120.380000 -4.762699
120.400000 -3.923435
120.420000 -3.091915
120.440000 -2.303862
120.460000 -1.390534
120.480000 -0.578731
120.500000 0.212865
120.520000 0.989296
120.540000 1.810971
120.560000 2.537172
120.580000 3.319064
120.600000 4.146691
120.620000 4.870833
120.640000 5.616386
120.660000 6.249716
120.680000 6.913980
120.700000 7.464900
120.720000 7.938760
120.740000 8.380637
120.760000 8.783878
120.780000 9.195170
120.800000 9.504925
120.820000 9.859308
120.840000 10.106170
120.860000 10.279440
120.880000 10.439360
120.900000 10.424580
120.920000 10.352160
120.940000 10.224170
120.960000 10.069780
120.980000 9.823375
121.000000 9.496061
121.020000 9.180159
121.040000 8.815763
121.060000 8.305102
121.080000 7.718249
121.100000 7.197548
121.120000 6.590600
121.140000 5.951599
121.160000 5.234458
121.180000 4.613521
121.200000 4.019344
121.220000 3.320128
121.240000 2.640727
121.260000 1.959239
121.280000 1.245221
121.300000 0.509036
121.320000 -0.317512
121.340000 -1.119765
121.360000 -1.901601
121.380000 -2.736510
121.400000 -3.561028
121.420000 -4.366488
121.440000 -5.173502
121.460000 -5.968333
121.480000 -6.727217
121.500000 -7.539959
121.520000 -8.225997
121.540000 -8.804406
121.560000 -9.348409
121.580000 -9.808952
121.600000 -10.142860
121.620000 -10.348040
121.640000 -10.520290
121.660000 -10.648170
121.680000 -10.711610
121.700000 -10.669880
121.720000 -10.570130
121.740000 -10.496880
121.760000 -10.240860
121.780000 -9.863719
121.800000 -9.501172
121.820000 -9.105619
121.840000 -8.634238
121.860000 -8.117849
121.880000 -7.609289
121.900000 -7.069333
121.920000 -6.504508
121.940000 -5.827655
121.960000 -5.136127
121.980000 -4.398849
122.000000 -3.606623
122.020000 -2.811498
122.040000 -1.959715
122.060000 -1.171396
122.080000 -0.394825
122.100000 0.368961
122.120000 1.169379
122.140000 1.967767
122.160000 2.676547
122.180000 3.472807
122.200000 4.279261
122.220000 5.029365
122.240000 5.730331
122.260000 6.308446
122.280000 6.964938
122.300000 7.537634
122.320000 7.975407
122.340000 8.424901
122.360000 8.829977
122.380000 9.256015
122.400000 9.644104
122.420000 9.895017
122.440000 10.168950
122.460000 10.320580
122.480000 10.371920
122.500000 10.337640
122.520000 10.221660
122.540000 10.098820
122.560000 9.893798
122.580000 9.650672
122.600000 9.357581
122.620000 9.002610
122.640000 8.590771
122.660000 8.135928
122.680000 7.572488
122.700000 6.998056
122.720000 6.387846
122.740000 5.740610
122.760000 5.136771
122.780000 4.435972
122.800000 3.833758
122.820000 3.196030
122.840000 2.443237
122.860000 1.772476
122.880000 0.986313
122.900000 0.239149
122.920000 -0.603979
122.940000 -1.484945
122.960000 -2.251209
122.980000 -3.099589
123.000000 -3.934330
123.020000 -4.725674
123.040000 -5.510367
123.060000 -6.316666
123.080000 -7.098194
123.100000 -7.799567
123.120000 -8.411122
123.140000 -8.973595
123.160000 -9.460380
123.180000 -9.799850
123.200000 -10.100600
123.220000 -10.302180
123.240000 -10.451750
123.260000 -10.554410
123.280000 -10.583830
123.300000 -10.616620
123.320000 -10.464440
123.340000 -10.327680
123.360000 -10.146670
123.380000 -9.799458
123.400000 -9.406551
123.420000 -8.981633
123.440000 -8.617518
123.460000 -8.101732
123.480000 -7.545392
123.500000 -7.031594
123.520000 -6.471026
123.540000 -5.816270
123.560000 -5.034266
123.580000 -4.299678
123.600000 -3.543034
123.620000 -2.703210
123.640000 -1.866229
123.660000 -1.069227
123.680000 -0.255702
123.700000 0.540978
123.720000 1.269349
123.740000 2.134505
123.760000 2.936184
123.780000 3.715513
123.800000 4.497783
123.820000 5.209728
123.840000 6.007038
123.860000 6.589648
123.880000 7.108123
123.900000 7.708517
123.920000 8.255026
123.940000 8.628020
123.960000 9.045684
123.980000 9.500864
124.000000 9.787849
124.020000 10.110430
124.040000 10.297430
124.060000 10.422970
124.080000 10.505510
124.100000 10.384360
124.120000 10.401220
124.140000 10.198990
124.160000 9.925698
124.180000 9.777122
124.200000 9.463097
124.220000 9.085636
124.240000 8.538973
124.260000 8.211210
124.280000 7.461344
124.300000 7.007845
124.320000 6.339744
124.340000 5.337229
124.360000 5.296073
124.380000 4.113587
124.400000 3.515335
124.420000 3.104994
124.440000 1.821586
124.460000 1.655534
124.480000 0.645835
124.500000 -0.392500
124.520000 -0.766950
124.540000 -1.701199
124.560000 -2.634145
124.580000 -3.157829
124.600000 -4.175328
124.620000 -4.900380
124.640000 -5.350980
124.660000 -6.801267
124.680000 -7.110951
124.700000 -7.867301
124.720000 -8.815525
124.740000 -9.008071
124.760000 -9.901374
124.780000 -9.984176
124.800000 -10.374310
124.820000 -10.638650
124.840000 -10.702340
124.860000 -11.001060
124.880000 -10.703890
124.900000 -10.957100
124.920000 -10.811610
124.940000 -10.421750
124.960000 -10.419270
124.980000 -9.857362
125.000000 -9.339069
125.020000 -9.250428
125.040000 -8.399037
125.060000 -7.831565
125.080000 -7.705394
125.100000 -6.604478
125.120000 -6.274600
125.140000 -5.534130
125.160000 -4.510554
125.180000 -4.165343
125.200000 -2.996286
125.220000 -2.193179
125.240000 -1.441226
125.260000 -0.558440
125.280000 0.202475
125.300000 1.094979
125.320000 1.810691
125.340000 2.638178
125.360000 3.307581
125.380000 4.224381
125.400000 5.037137
125.420000 5.580958
125.440000 6.354812
125.460000 7.003462
125.480000 7.469760
125.500000 8.038212
125.520000 8.465273
125.540000 8.728816
125.560000 9.396133
125.580000 9.582686
125.600000 9.793800
125.620000 10.302440
125.640000 10.255530
125.660000 10.495370
125.680000 10.517410
125.700000 10.284450
125.720000 10.234160
125.740000 10.134350
125.760000 9.786561
125.780000 9.456991
125.800000 9.234324
125.820000 8.715331
125.840000 8.296266
125.860000 7.725489
125.880000 7.051213
125.900000 6.584593
125.920000 5.884523
125.940000 5.160366
125.960000 4.568808
125.980000 3.964661
126.000000 3.276746
126.020000 2.623993
126.040000 1.874547
126.060000 1.160081
126.080000 0.502833
126.100000 -0.430267
126.120000 -1.186015
126.140000 -1.932549
126.160000 -2.787090
126.180000 -3.601512
126.200000 -4.385378
126.220000 -5.231560
126.240000 -6.025102
126.260000 -6.724374
126.280000 -7.635503
126.300000 -8.242437
126.320000 -8.796957
126.340000 -9.422739
126.360000 -9.747001
126.380000 -10.128400
126.400000 -10.389780
126.420000 -10.464660
126.440000 -10.599890
126.460000 -10.738370
126.480000 -10.639980
126.500000 -10.558030
126.520000 -10.487290
126.540000 -10.164620
126.560000 -9.925726
126.580000 -9.495417
126.600000 -9.024917
126.620000 -8.667762
126.640000 -8.132875
126.660000 -7.575331
126.680000 -7.073380
126.700000 -6.482606
126.720000 -5.812489
126.740000 -5.170029
126.760000 -4.341730
126.780000 -3.557233
126.800000 -2.817267
126.820000 -1.916949
126.840000 -1.128237
126.860000 -0.316854
126.880000 0.425044
126.900000 1.170765
126.920000 2.006738
126.940000 2.810238
126.960000 3.565775
126.980000 4.271811
127.000000 5.139670
127.020000 5.843703
127.040000 6.388406
127.060000 7.024537
127.080000 7.590287
127.100000 8.066961
127.120000 8.519046
127.140000 8.869102
127.160000 9.313863
127.180000 9.753317
127.200000 9.956085
127.220000 10.209630
127.240000 10.377170
127.260000 10.360000
127.280000 10.420730
127.300000 10.231100
127.320000 10.060090
127.340000 9.905057
127.360000 9.639119
127.380000 9.358940
127.400000 8.944594
127.420000 8.512268
127.440000 8.080937
127.460000 7.573595
127.480000 6.899921
127.500000 6.275889
127.520000 5.733006
127.540000 5.057834
127.560000 4.383334
127.580000 3.744990
127.600000 3.106157
127.620000 2.429710
127.640000 1.673668
127.660000 0.886539
127.680000 0.160913
127.700000 -0.649658
127.720000 -1.546392
127.740000 -2.341951
127.760000 -3.168332
127.780000 -3.992276
127.800000 -4.746217
127.820000 -5.601024
127.840000 -6.385465
127.860000 -7.110167
127.880000 -7.799861
127.900000 -8.444618
127.920000 -8.994138
127.940000 -9.445509
127.960000 -9.808126
127.980000 -10.048370
128.000000 -10.324500
128.020000 -10.443300
128.040000 -10.483170
128.060000 -10.588630
128.080000 -10.579960
128.100000 -10.477260
128.120000 -10.308020
128.140000 -10.046970
128.160000 -9.803687
128.180000 -9.420345
128.200000 -8.959858
128.220000 -8.552514
128.240000 -8.114923
128.260000 -7.565697
128.280000 -6.996152
128.300000 -6.420347
128.320000 -5.759290
128.340000 -5.063463
128.360000 -4.278827
128.380000 -3.461604
128.400000 -2.671436
128.420000 -1.850111
128.440000 -1.005988
128.460000 -0.229809
128.480000 0.598434
128.500000 1.379038
128.520000 2.126061
128.540000 3.023425
128.560000 3.807151
128.580000 4.524866
128.600000 5.300554
128.620000 6.010581
128.640000 6.682308
128.660000 7.216789
128.680000 7.713810
128.700000 8.288578
128.720000 8.716647
128.740000 9.122955
128.760000 9.510554
128.780000 9.873605
128.800000 10.168080
128.820000 10.340310
128.840000 10.451050
128.860000 10.532860
128.880000 10.478300
128.900000 10.361690
128.920000 10.200040
128.940000 9.997885
128.960000 9.743794
128.980000 9.418062
129.000000 9.044396
129.020000 8.586556
129.040000 8.046936
129.060000 7.504152
129.080000 6.846610
129.100000 6.196560
129.120000 5.543513
129.140000 4.861115
129.160000 4.200492
129.180000 3.458383
129.200000 2.782259
129.220000 2.068969
129.240000 1.295717
129.260000 0.504387
129.280000 -0.263011
129.300000 -1.022008
129.320000 -1.835897
129.340000 -2.629538
129.360000 -3.366647
129.380000 -4.133668
129.400000 -4.907256
129.420000 -5.708080
129.440000 -6.513680
129.460000 -7.244684
129.480000 -7.988766
129.500000 -8.656853
129.520000 -9.199735
129.540000 -9.714989
129.560000 -10.073000
129.580000 -10.351930
129.600000 -10.628260
129.620000 -10.760620
129.640000 -10.834740
129.660000 -10.887020
129.680000 -10.876370
129.700000 -10.770420
129.720000 -10.544760
129.740000 -10.277880
129.760000 -9.917660
129.780000 -9.459946
129.800000 -8.993186
129.820000 -8.483785
129.840000 -7.995530
129.860000 -7.420454
129.880000 -6.778049
129.900000 -6.166872
129.920000 -5.446777
129.940000 -4.679323
129.960000 -3.896325
129.980000 -3.044808
130.000000 -2.197674
130.020000 -1.323248
130.040000 -0.517942
130.060000 0.272352
130.080000 1.128069
130.100000 1.870430
130.120000 2.656397
130.140000 3.460778
130.160000 4.265495
130.180000 5.014367
130.200000 5.716286
130.220000 6.426929
130.240000 7.022030
130.260000 7.566845
130.280000 8.028886
130.300000 8.531313
130.320000 8.926544
130.340000 9.268716
130.360000 9.641080
130.380000 9.970607
130.400000 10.219140
130.420000 10.358260
130.440000 10.490020
130.460000 10.482420
130.480000 10.367210
130.500000 10.242830
130.520000 10.034360
130.540000 9.812873
130.560000 9.461584
130.580000 9.143400
130.600000 8.718440
130.620000 8.203186
130.640000 7.643205
130.660000 7.032266
130.680000 6.470535
130.700000 5.742430
130.720000 5.100348
130.740000 4.501312
130.760000 3.838169
130.780000 3.170628
130.800000 2.474549
130.820000 1.820004
130.840000 1.093397
130.860000 0.289954
130.880000 -0.481548
130.900000 -1.237295
130.920000 -2.030936
130.940000 -2.844154
130.960000 -3.627712
130.980000 -4.419532
131.000000 -5.169245
131.020000 -5.979970
131.040000 -6.765502
131.060000 -7.524233
131.080000 -8.230997
131.100000 -8.817696
131.120000 -9.371039
131.140000 -9.785944
131.160000 -10.143090
131.180000 -10.356670
131.200000 -10.519190
131.220000 -10.667670
131.240000 -10.685440
131.260000 -10.691600
131.280000 -10.613140
131.300000 -10.444560
131.320000 -10.245590
131.340000 -9.900772
131.360000 -9.473571
131.380000 -9.081925
131.400000 -8.608961
131.420000 -8.097349
131.440000 -7.591421
131.460000 -7.011065
131.480000 -6.436017
131.500000 -5.802701
131.520000 -5.054165
131.540000 -4.320949
131.560000 -3.511400
131.580000 -2.698365
131.600000 -1.877823
131.620000 -1.025200
131.640000 -0.279619
131.660000 0.484965
131.680000 1.289304
131.700000 2.038120
131.720000 2.832979
131.740000 3.588979
131.760000 4.380799
131.780000 5.145761
131.800000 5.818063
131.820000 6.476193
131.840000 7.077805
131.860000 7.579686
131.880000 8.062606
131.900000 8.471546
131.920000 8.900484
131.940000 9.354417
131.960000 9.638377
131.980000 9.990716
132.000000 10.232290
132.020000 10.333970
132.040000 10.430160
132.060000 10.346580
132.080000 10.222710
132.100000 10.091850
132.120000 9.832646
132.140000 9.601422
132.160000 9.281501
132.180000 8.903312
132.200000 8.522085
132.220000 7.995446
132.240000 7.467673
132.260000 6.877641
132.280000 6.226779
132.300000 5.626399
132.320000 4.948426
132.340000 4.307884
132.360000 3.709478
132.380000 3.034964
132.400000 2.378192
132.420000 1.614700
132.440000 0.895991
132.460000 0.143969
132.480000 -0.756350
132.500000 -1.563196
132.520000 -2.379326
132.540000 -3.201688
132.560000 -3.983720
132.580000 -4.817158
132.600000 -5.554295
132.620000 -6.302397
132.640000 -7.125417
132.660000 -7.753818
132.680000 -8.412452
132.700000 -8.965879
132.720000 -9.403218
132.740000 -9.789053
132.760000 -10.032310
132.780000 -10.269660
132.800000 -10.409360
132.820000 -10.468010
132.840000 -10.561560
132.860000 -10.550420
132.880000 -10.464070
132.900000 -10.282570
132.920000 -10.077590
132.940000 -9.793884
132.960000 -9.362371
132.980000 -8.980835
133.000000 -8.564823
133.020000 -8.053140
133.040000 -7.552912
133.060000 -6.984865
133.080000 -6.390492
133.100000 -5.798766
133.120000 -4.989063
133.140000 -4.283098
133.160000 -3.492776
133.180000 -2.568203
133.200000 -1.834175
133.220000 -0.989828
133.240000 -0.166206
133.260000 0.603727
133.280000 1.423638
133.300000 2.176277
133.320000 3.024181
133.340000 3.823829
133.360000 4.556933
133.380000 5.332188
133.400000 6.053473
133.420000 6.695640
133.440000 7.221242
133.460000 7.798251
133.480000 8.314163
133.500000 8.705949
133.520000 9.126260
133.540000 9.563319
133.560000 9.908348
133.580000 10.172020
133.600000 10.340800
133.620000 10.515720
133.640000 10.577400
133.660000 10.430240
133.680000 10.341810
133.700000 10.205740
133.720000 9.971111
133.740000 9.678315
133.760000 9.367734
133.780000 9.018168
133.800000 8.544042
133.820000 7.990601
133.840000 7.421896
133.860000 6.801855
133.880000 6.170457
133.900000 5.439930
133.920000 4.804275
133.940000 4.141986
133.960000 3.386588
133.980000 2.758579
134.000000 2.016723
134.020000 1.244059
134.040000 0.511039
134.060000 -0.329079
134.080000 -1.049762
134.100000 -1.862140
134.120000 -2.687162
134.140000 -3.381267
134.160000 -4.164111
134.180000 -4.948692
134.200000 -5.744335
134.220000 -6.528117
134.240000 -7.280476
134.260000 -8.005921
134.280000 -8.674217
134.300000 -9.213501
134.320000 -9.712091
134.340000 -10.082270
134.360000 -10.355740
134.380000 -10.585650
134.400000 -10.714420
134.420000 -10.841570
134.440000 -10.854490
134.460000 -10.810460
134.480000 -10.747180
134.500000 -10.527700
134.520000 -10.249390
134.540000 -9.869376
134.560000 -9.408946
134.580000 -8.976564
134.600000 -8.450499
134.620000 -7.929952
134.640000 -7.390557
134.660000 -6.759215
134.680000 -6.124162
134.700000 -5.439005
134.720000 -4.622917
134.740000 -3.838491
134.760000 -3.022361
134.780000 -2.138440
134.800000 -1.285775
134.820000 -0.457840
134.840000 0.316756
134.860000 1.110061
134.880000 1.947098
134.900000 2.723543
134.920000 3.450569
134.940000 4.251478
134.960000 5.066782
134.980000 5.754627
135.000000 6.411777
135.020000 7.002145
135.040000 7.556244
135.060000 8.086902
135.080000 8.465035
135.100000 8.880949
135.120000 9.306763
135.140000 9.630717
135.160000 9.957262
135.180000 10.209200
135.200000 10.339970
135.220000 10.475670
135.240000 10.495830
135.260000 10.351060
135.280000 10.198270
135.300000 10.038800
135.320000 9.817634
135.340000 9.480279
135.360000 9.083438
135.380000 8.694452
135.400000 8.231389
135.420000 7.619596
135.440000 6.988352
135.460000 6.415530
135.480000 5.792899
135.500000 5.090532
135.520000 4.410878
135.540000 3.836558
135.560000 3.184001
135.580000 2.463080
135.600000 1.779590
135.620000 1.042159
135.640000 0.309796
135.660000 -0.508154
135.680000 -1.300787
135.700000 -2.061716
135.720000 -2.876824
135.740000 -3.651826
135.760000 -4.429223
135.780000 -5.229333
135.800000 -6.001031
135.820000 -6.782825
135.840000 -7.554410
135.860000 -8.253486
135.880000 -8.888035
135.900000 -9.366838
135.920000 -9.789319
135.940000 -10.179540
135.960000 -10.389140
135.980000 -10.531320
136.000000 -10.645810
136.020000 -10.707380
136.040000 -10.737660
136.060000 -10.606440
136.080000 -10.469700
136.100000 -10.269510
136.120000 -9.906079
136.140000 -9.518060
136.160000 -9.076282
136.180000 -8.608303
136.200000 -8.123241
136.220000 -7.619834
136.240000 -7.033177
136.260000 -6.419059
136.280000 -5.815122
136.300000 -5.070563
136.320000 -4.333314
136.340000 -3.508361
136.360000 -2.663342
136.380000 -1.888900
136.400000 -1.039288
136.420000 -0.209812
136.440000 0.519371
136.460000 1.296432
136.480000 2.092999
136.500000 2.851954
136.520000 3.675968
136.540000 4.416326
136.560000 5.151544
136.580000 5.893499
136.600000 6.500951
136.620000 7.138216
136.640000 7.620282
136.660000 8.086496
136.680000 8.541101
136.700000 8.968246
136.720000 9.368252
136.740000 9.676690
136.760000 10.038080
136.780000 10.297850
136.800000 10.364970
136.820000 10.452560
136.840000 10.393560
136.860000 10.281930
136.880000 10.131550
136.900000 9.862501
136.920000 9.628491
136.940000 9.343326
136.960000 8.917148
136.980000 8.515167
137.000000 8.022501
137.020000 7.442957
137.040000 6.880274
137.060000 6.226499
137.080000 5.580972
137.100000 4.925040
137.120000 4.305811
137.140000 3.664065
137.160000 2.980743
137.180000 2.305262
137.200000 1.566192
137.220000 0.853645
137.240000 0.026130
137.260000 -0.847204
137.280000 -1.625483
137.300000 -2.489728
137.320000 -3.345166
137.340000 -4.104121
137.360000 -4.901598
137.380000 -5.668143
137.400000 -6.450357
137.420000 -7.237710
137.440000 -7.830332
137.460000 -8.482903
137.480000 -9.066577
137.500000 -9.479621
137.520000 -9.836048
137.540000 -10.063070
137.560000 -10.309310
137.580000 -10.447310
137.600000 -10.481880
137.620000 -10.525520
137.640000 -10.526930
137.660000 -10.465420
137.680000 -10.265060
137.700000 -10.028310
137.720000 -9.741218
137.740000 -9.358674
137.760000 -8.939273
137.780000 -8.502368
137.800000 -7.967859
137.820000 -7.499013
137.840000 -6.960667
137.860000 -6.274964
137.880000 -5.666938
137.900000 -4.932350
137.920000 -4.167626
137.940000 -3.383045
137.960000 -2.472546
137.980000 -1.687910
138.000000 -0.931560
138.020000 -0.068014
138.040000 0.733790
138.060000 1.501385
138.080000 2.275323
138.100000 3.072171
138.120000 3.907415
138.140000 4.670949
138.160000 5.366104
138.180000 6.086115
138.200000 6.719501
138.220000 7.283865
138.240000 7.799469
138.260000 8.275681
138.280000 8.726632
138.300000 9.165791
138.320000 9.538799
138.340000 9.856395
138.360000 10.128930
138.380000 10.369790
138.400000 10.434290
138.420000 10.459270
138.440000 10.400520
138.460000 10.280500
138.480000 10.137400
138.500000 9.883198
138.520000 9.603873
138.540000 9.327432
138.560000 8.967112
138.580000 8.440991
138.600000 7.946672
138.620000 7.364552
138.640000 6.742299
138.660000 6.106686
138.680000 5.372279
138.700000 4.749312
138.720000 4.098197
138.740000 3.356243
138.760000 2.679362
138.780000 1.960849
138.800000 1.226737
138.820000 0.442674
138.840000 -0.338840
138.860000 -1.130324
138.880000 -1.919455
138.900000 -2.672528
138.920000 -3.462122
138.940000 -4.210574
138.960000 -4.979597
138.980000 -5.756210
139.000000 -6.539950
139.020000 -7.300277
139.040000 -8.068460
139.060000 -8.628468
139.080000 -9.205841
139.100000 -9.739901
139.120000 -10.054220
139.140000 -10.377210
139.160000 -10.516910
139.180000 -10.691280
139.200000 -10.868920
139.220000 -10.802210
139.240000 -10.782350
139.260000 -10.710610
139.280000 -10.519170
139.300000 -10.255980
139.320000 -9.807874
139.340000 -9.401580
139.360000 -8.978860
139.380000 -8.445080
139.400000 -7.925723
139.420000 -7.344836
139.440000 -6.779716
139.460000 -6.171634
139.480000 -5.377867
139.500000 -4.644188
139.520000 -3.878568
139.540000 -3.009786
139.560000 -2.152387
139.580000 -1.249058
139.600000 -0.472950
139.620000 0.309895
139.640000 1.173174
139.660000 1.931218
139.680000 2.688632
139.700000 3.486922
139.720000 4.282579
139.740000 5.054039
139.760000 5.764430
139.780000 6.423176
139.800000 7.048608
139.820000 7.600229
139.840000 8.064062
139.860000 8.539953
139.880000 8.928910
139.900000 9.315599
139.920000 9.692556
139.940000 9.996429
139.960000 10.236400
139.980000 10.427800
140.000000 10.510720
140.020000 10.487890
140.040000 10.431910
140.060000 10.247170
140.080000 10.065680
140.100000 9.819735
140.120000 9.484186
140.140000 9.159056
140.160000 8.735636
140.180000 8.207597
140.200000 7.617691
140.220000 7.043749
140.240000 6.419689
140.260000 5.710433
140.280000 5.037305
140.300000 4.400838
140.320000 3.773501
140.340000 3.098175
140.360000 2.396704
140.380000 1.709853
140.400000 1.012121
140.420000 0.239248
140.440000 -0.581924
140.460000 -1.325671
140.480000 -2.121468
140.500000 -2.890603
140.520000 -3.681653
140.540000 -4.463587
140.560000 -5.217458
140.580000 -5.976567
140.600000 -6.781172
140.620000 -7.559885
140.640000 -8.268470
140.660000 -8.883441
140.680000 -9.393080
140.700000 -9.878885
140.720000 -10.244500
140.740000 -10.426780
140.760000 -10.621110
140.780000 -10.707350
140.800000 -10.800710
140.820000 -10.786890
140.840000 -10.662400
140.860000 -10.568380
140.880000 -10.314360
140.900000 -9.988671
140.920000 -9.564985
140.940000 -9.104877
140.960000 -8.644922
140.980000 -8.110806
141.000000 -7.544622
141.020000 -6.987246
141.040000 -6.344141
141.060000 -5.715152
141.080000 -5.020711
141.100000 -4.180943
141.120000 -3.413517
141.140000 -2.577222
141.160000 -1.730396
141.180000 -0.908202
141.200000 -0.069303
141.220000 0.649084
141.240000 1.443803
141.260000 2.231969
141.280000 2.952638
141.300000 3.760002
141.320000 4.499968
141.340000 5.258852
141.360000 5.962241
141.380000 6.587534
141.400000 7.187200
141.420000 7.694892
141.440000 8.115119
141.460000 8.548607
141.480000 8.955461
141.500000 9.344348
141.520000 9.696617
141.540000 9.995421
141.560000 10.228970
141.580000 10.350170
141.600000 10.420460
141.620000 10.380070
141.640000 10.204320
141.660000 10.044460
141.680000 9.837211
141.700000 9.567128
141.720000 9.238581
141.740000 8.810960
141.760000 8.459546
141.780000 7.977256
141.800000 7.350843
141.820000 6.743783
141.840000 6.160809
141.860000 5.537855
141.880000 4.812047
141.900000 4.173409
141.920000 3.589693
141.940000 2.947639
141.960000 2.226717
141.980000 1.490896
142.000000 0.806958
142.020000 0.033160
142.040000 -0.871205
142.060000 -1.693553
142.080000 -2.500287
142.100000 -3.328474
142.120000 -4.137519
142.140000 -4.904651
142.160000 -5.669795
142.180000 -6.450455
142.200000 -7.180576
142.220000 -7.854936
142.240000 -8.504398
142.260000 -9.061088
142.280000 -9.498063
142.300000 -9.831231
142.320000 -10.117890
142.340000 -10.333570
142.360000 -10.397790
142.380000 -10.490780
142.400000 -10.568610
142.420000 -10.511920
142.440000 -10.432190
142.460000 -10.250040
142.480000 -10.040110
142.500000 -9.734888
142.520000 -9.270985
142.540000 -8.914977
142.560000 -8.470538
142.580000 -7.906077
142.600000 -7.414390
142.620000 -6.859619
142.640000 -6.245403
142.660000 -5.589584
142.680000 -4.850682
142.700000 -4.106193
142.720000 -3.294796
142.740000 -2.430480
142.760000 -1.640858
142.780000 -0.811271
142.800000 0.010993
142.820000 0.775464
142.840000 1.531870
142.860000 2.327415
142.880000 3.145646
142.900000 3.895358
142.920000 4.648571
142.940000 5.423224
142.960000 6.130296
142.980000 6.710693
143.000000 7.275239
143.020000 7.845022
143.040000 8.312146
143.060000 8.694942
143.080000 9.129985
143.100000 9.519362
143.120000 9.867304
143.140000 10.125920
143.160000 10.294990
143.180000 10.437900
143.200000 10.476340
143.220000 10.371170
143.240000 10.254400
143.260000 10.063950
143.280000 9.879711
143.300000 9.619640
143.320000 9.262709
143.340000 8.883469
143.360000 8.439885
143.380000 7.941267
143.400000 7.344500
143.420000 6.672436
143.440000 6.053039
143.460000 5.415648
143.480000 4.712147
143.500000 4.015451
143.520000 3.348093
143.540000 2.699331
143.560000 1.951551
143.580000 1.171998
143.600000 0.416026
143.620000 -0.352367
143.640000 -1.143627
143.660000 -1.956620
143.680000 -2.734381
143.700000 -3.476770
143.720000 -4.250288
143.740000 -5.031213
143.760000 -5.825946
143.780000 -6.623130
143.800000 -7.376665
143.820000 -8.111002
143.840000 -8.729404
143.860000 -9.280899
143.880000 -9.771241
143.900000 -10.096670
143.920000 -10.375080
143.940000 -10.586810
143.960000 -10.694400
143.980000 -10.797980
144.000000 -10.833030
144.020000 -10.793710
144.040000 -10.679710
144.060000 -10.482950
144.080000 -10.182300
144.100000 -9.824524
144.120000 -9.354571
144.140000 -8.856975
144.160000 -8.405563
144.180000 -7.863254
144.200000 -7.282045
144.220000 -6.678261
144.240000 -6.046654
144.260000 -5.343769
144.280000 -4.541880
144.300000 -3.720666
144.320000 -2.895294
144.340000 -2.033835
144.360000 -1.155908
144.380000 -0.355181
144.400000 0.426781
144.420000 1.227493
144.440000 1.999485
144.460000 2.782189
144.480000 3.551870
144.500000 4.362791
144.520000 5.107518
144.540000 5.803485
144.560000 6.489412
144.580000 7.087048
144.600000 7.599403
144.620000 8.063138
144.640000 8.527420
144.660000 8.938601
144.680000 9.301694
144.700000 9.635464
144.720000 9.982874
144.740000 10.260150
144.760000 10.358120
144.780000 10.444190
144.800000 10.472400
144.820000 10.354650
144.840000 10.185880
144.860000 9.983056
144.880000 9.730785
144.900000 9.470000
144.920000 9.093212
144.940000 8.652806
144.960000 8.173317
144.980000 7.580008
145.000000 6.964364
145.020000 6.360315
145.040000 5.653229
145.060000 4.990464
145.080000 4.382395
145.100000 3.712797
145.120000 3.047973
145.140000 2.370532
145.160000 1.681342
145.180000 0.945395
145.200000 0.160983
145.220000 -0.618641
145.240000 -1.395631
145.260000 -2.155776
145.280000 -2.990503
145.300000 -3.729390
145.320000 -4.450900
145.340000 -5.272113
145.360000 -6.058108
145.380000 -6.835169
145.400000 -7.587738
145.420000 -8.313490
145.440000 -8.930745
145.460000 -9.443744
145.480000 -9.870175
145.500000 -10.198760
145.520000 -10.453570
145.540000 -10.583970
145.560000 -10.666880
145.580000 -10.776220
145.600000 -10.747050
145.620000 -10.651530
145.640000 -10.527720
145.660000 -10.246180
145.680000 -9.914047
145.700000 -9.514881
145.720000 -9.028810
145.740000 -8.562960
145.760000 -8.014953
145.780000 -7.488776
145.800000 -6.960429
145.820000 -6.277065
145.840000 -5.652683
145.860000 -4.929129
145.880000 -4.135684
145.900000 -3.333095
145.920000 -2.465041
145.940000 -1.676203
145.960000 -0.834180
145.980000 -0.026060
146.000000 0.700042
146.020000 1.491891
146.040000 2.236310
146.060000 2.998989
146.080000 3.803062
146.100000 4.562885
146.120000 5.297515
146.140000 5.972646
146.160000 6.602965
146.180000 7.210767
146.200000 7.684165
146.220000 8.087084
146.240000 8.552640
146.260000 8.968386
146.280000 9.348563
146.300000 9.667196
146.320000 9.992928
146.340000 10.234810
146.360000 10.319010
146.380000 10.356890
146.400000 10.316080
146.420000 10.187130
146.440000 9.984428
146.460000 9.768552
146.480000 9.539401
146.500000 9.213165
146.520000 8.795164
146.540000 8.397385
146.560000 7.940875
146.580000 7.346768
146.600000 6.729164
146.620000 6.107344
146.640000 5.514722
146.660000 4.829873
146.680000 4.179053
146.700000 3.567470
146.720000 2.929700
146.740000 2.240987
146.760000 1.473098
146.780000 0.758604
146.800000 -0.043677
146.820000 -0.904604
146.840000 -1.726783
146.860000 -2.563904
146.880000 -3.387050
146.900000 -4.184570
146.920000 -4.965118
146.940000 -5.736157
146.960000 -6.515668
146.980000 -7.288584
147.000000 -7.914353
147.020000 -8.540541
147.040000 -9.109638
147.060000 -9.514363
147.080000 -9.850430
147.100000 -10.098850
147.120000 -10.304630
147.140000 -10.416430
147.160000 -10.480580
147.180000 -10.552820
147.200000 -10.515510
147.220000 -10.409370
147.240000 -10.209640
147.260000 -9.994539
147.280000 -9.645505
147.300000 -9.227756
147.320000 -8.858025
147.340000 -8.387246
147.360000 -7.858381
147.380000 -7.327541
147.400000 -6.787250
147.420000 -6.192022
147.440000 -5.485959
147.460000 -4.747043
147.480000 -4.028180
147.500000 -3.207107
147.520000 -2.350297
147.540000 -1.558883
147.560000 -0.765830
147.580000 0.025164
147.600000 0.806076
147.620000 1.595880
147.640000 2.358349
147.660000 3.180080
147.680000 3.961216
147.700000 4.682642
147.720000 5.465514
147.740000 6.149410
147.760000 6.709307
147.780000 7.262664
147.800000 7.827518
147.820000 8.299249
147.840000 8.703806
147.860000 9.113993
147.880000 9.551094
147.900000 9.891040
147.920000 10.084230
147.940000 10.279240
147.960000 10.443820
147.980000 10.425790
148.000000 10.334050
148.020000 10.216560
148.040000 10.098370
148.060000 9.860050
148.080000 9.562241
148.100000 9.296695
148.120000 8.890065
148.140000 8.416723
148.160000 7.899691
148.180000 7.320638
148.200000 6.688848
148.220000 6.010273
148.240000 5.359074
148.260000 4.732592
148.280000 4.021431
148.300000 3.315031
148.320000 2.675847
148.340000 1.918419
148.360000 1.126529
148.380000 0.351666
148.400000 -0.405958
148.420000 -1.187569
148.440000 -2.035613
148.460000 -2.768508
148.480000 -3.506695
148.500000 -4.331115
148.520000 -5.114421
148.540000 -5.905346
148.560000 -6.674494
148.580000 -7.453460
148.600000 -8.158025
148.620000 -8.753924
148.640000 -9.285184
148.660000 -9.763847
148.680000 -10.078770
148.700000 -10.341420
148.720000 -10.555490
148.740000 -10.705900
148.760000 -10.800820
148.780000 -10.811400
148.800000 -10.800630
148.820000 -10.682820
148.840000 -10.421710
148.860000 -10.160460
148.880000 -9.801306
148.900000 -9.322993
148.920000 -8.847663
148.940000 -8.369574
148.960000 -7.876697
148.980000 -7.275771
149.000000 -6.644345
149.020000 -6.019389
149.040000 -5.310034
149.060000 -4.506717
149.080000 -3.680939
149.100000 -2.855048
149.120000 -1.998883
149.140000 -1.145671
149.160000 -0.309600
149.180000 0.488325
149.200000 1.262375
149.220000 2.058593
149.240000 2.835864
149.260000 3.635638
149.280000 4.431421
149.300000 5.157482
149.320000 5.884074
149.340000 6.549584
149.360000 7.119465
149.380000 7.640265
149.400000 8.119824
149.420000 8.584638
149.440000 8.996939
149.460000 9.346533
149.480000 9.692052
149.500000 10.034950
149.520000 10.269540
149.540000 10.403730
149.560000 10.460750
149.580000 10.436290
149.600000 10.387140
149.620000 10.211720
149.640000 9.996065
149.660000 9.748611
149.680000 9.456319
149.700000 9.107467
149.720000 8.629098
149.740000 8.123381
149.760000 7.555082
149.780000 6.945600
149.800000 6.286447
149.820000 5.603447
149.840000 4.979793
149.860000 4.309732
149.880000 3.651014
149.900000 2.967607
149.920000 2.292771
149.940000 1.599338
149.960000 0.839488
149.980000 0.085463
150.000000 -0.688294
150.020000 -1.450231
150.040000 -2.207813
150.060000 -2.976500
150.080000 -3.745522
150.100000 -4.480139
150.120000 -5.261961
150.140000 -6.060335
150.160000 -6.824807
150.180000 -7.610619
150.200000 -8.283495
150.220000 -8.902990
150.240000 -9.467942
150.260000 -9.879361
150.280000 -10.207920
150.300000 -10.476370
150.320000 -10.641960
150.340000 -10.750900
150.360000 -10.811230
150.380000 -10.796370
150.400000 -10.744670
150.420000 -10.556190
150.440000 -10.297420
150.460000 -9.977062
150.480000 -9.521519
150.500000 -9.081729
150.520000 -8.566657
150.540000 -8.023299
150.560000 -7.507373
150.580000 -6.884881
150.600000 -6.269811
150.620000 -5.617086
150.640000 -4.844521
150.660000 -4.076240
150.680000 -3.262854
150.700000 -2.409587
150.720000 -1.595390
150.740000 -0.739154
150.760000 0.020249
150.780000 0.785645
150.800000 1.607474
150.820000 2.341475
150.840000 3.107935
150.860000 3.870965
150.880000 4.655965
150.900000 5.401729
150.920000 6.021125
150.940000 6.679326
150.960000 7.278138
150.980000 7.749071
151.000000 8.177532
151.020000 8.586276
151.040000 9.031793
151.060000 9.405179
151.080000 9.695875
151.100000 10.024110
151.120000 10.240680
151.140000 10.320380
151.160000 10.401210
151.180000 10.313410
151.200000 10.191010
151.220000 10.014310
151.240000 9.791154
151.260000 9.544484
151.280000 9.152320
151.300000 8.810694
151.320000 8.364743
151.340000 7.864473
151.360000 7.287688
151.380000 6.687434
151.400000 6.101855
151.420000 5.403647
151.440000 4.744523
151.460000 4.169446
151.480000 3.501556
151.500000 2.805784
151.520000 2.149559
151.540000 1.461825
151.560000 0.690548
151.580000 -0.151516
151.600000 -0.936083
151.620000 -1.674368
151.640000 -2.612286
151.660000 -3.446985
151.680000 -4.171183
151.700000 -4.933708
151.720000 -5.761419
151.740000 -6.613776
151.760000 -7.231002
151.780000 -7.878196
151.800000 -8.596260
151.820000 -9.128696
151.840000 -9.491258
151.860000 -9.836497
151.880000 -10.175070
151.900000 -10.359770
151.920000 -10.391380
151.940000 -10.527230
151.960000 -10.609620
151.980000 -10.512370
152.000000 -10.372240
152.020000 -10.228720
152.040000 -10.025250
152.060000 -9.592950
152.080000 -9.188575
152.100000 -8.852606
152.120000 -8.372935
152.140000 -7.776741
152.160000 -7.257231
152.180000 -6.754160
152.200000 -6.105216
152.220000 -5.366482
152.240000 -4.694545
152.260000 -3.947969
152.280000 -3.083247
152.300000 -2.271262
152.320000 -1.474022
152.340000 -0.676195
152.360000 0.134894
152.380000 0.924096
152.400000 1.627163
152.420000 2.484141
152.440000 3.304668
152.460000 3.969688
152.480000 4.777879
152.500000 5.524594
152.520000 6.194823
152.540000 6.761119
152.560000 7.292225
152.580000 7.913554
152.600000 8.337562
152.620000 8.687674
152.640000 9.209776
152.660000 9.573401
152.680000 9.854827
152.700000 10.106050
152.720000 10.302120
152.740000 10.449630
152.760000 10.377260
152.780000 10.298020
152.800000 10.266120
152.820000 10.031960
152.840000 9.772417
152.860000 9.529109
152.880000 9.242516
152.900000 8.819642
152.920000 8.251442
152.940000 7.836816
152.960000 7.265030
152.980000 6.546784
153.000000 5.944513
153.020000 5.313731
153.040000 4.623533
153.060000 3.923085
153.080000 3.223211
153.100000 2.620128
153.120000 1.852827
153.140000 1.004293
153.160000 0.359536
153.180000 -0.385639
153.200000 -1.276071
153.220000 -2.068451
153.240000 -2.763536
153.260000 -3.508095
153.280000 -4.375142
153.300000 -5.173992
153.320000 -5.848716
153.340000 -6.659245
153.360000 -7.500945
153.380000 -8.147130
153.400000 -8.685238
153.420000 -9.275172
153.440000 -9.775498
153.460000 -10.065580
153.480000 -10.289900
153.500000 -10.555140
153.520000 -10.736770
153.540000 -10.749770
153.560000 -10.768480
153.580000 -10.796780
153.600000 -10.658970
153.620000 -10.374520
153.640000 -10.131770
153.660000 -9.803239
153.680000 -9.279429
153.700000 -8.788387
153.720000 -8.348079
153.740000 -7.851785
153.760000 -7.218637
153.780000 -6.579594
153.800000 -6.017358
153.820000 -5.275530
153.840000 -4.418804
153.860000 -3.636576
153.880000 -2.829016
153.900000 -1.947952
153.920000 -1.053067
153.940000 -0.274326
153.960000 0.462307
153.980000 1.351199
154.000000 2.125403
154.020000 2.820656
154.040000 3.704226
154.060000 4.447609
154.080000 5.213103
154.100000 5.890194
154.120000 6.528719
154.140000 7.200993
154.160000 7.664995
154.180000 8.105779
154.200000 8.636898
154.220000 9.013379
154.240000 9.310068
154.260000 9.718504
154.280000 10.033990
154.300000 10.238660
154.320000 10.361020
154.340000 10.447040
154.360000 10.495990
154.380000 10.309710
154.400000 10.136520
154.420000 10.000730
154.440000 9.733446
154.460000 9.381807
154.480000 9.004417
154.500000 8.625107
154.520000 8.092839
154.540000 7.470026
154.560000 6.886015
154.580000 6.267529
154.600000 5.574460
154.620000 4.890970
154.640000 4.289021
154.660000 3.639923
154.680000 2.887214
154.700000 2.256558
154.720000 1.589256
154.740000 0.835063
154.760000 0.051476
154.780000 -0.810123
154.800000 -1.401905
154.820000 -2.235581
154.840000 -3.093666
154.860000 -3.779144
154.880000 -4.541670
154.900000 -5.226616
154.920000 -6.093677
154.940000 -6.990018
154.960000 -7.536206
154.980000 -8.242577
155.000000 -8.948025
155.020000 -9.508692
155.040000 -9.862025
155.060000 -10.122320
155.080000 -10.448330
155.100000 -10.679530
155.120000 -10.737640
155.140000 -10.683640
155.160000 -10.740530
155.180000 -10.774760
155.200000 -10.536830
155.220000 -10.153550
155.240000 -9.920895
155.260000 -9.552956
155.280000 -9.061424
155.300000 -8.490689
155.320000 -7.915333
155.340000 -7.543193
155.360000 -6.916613
155.380000 -6.177529
155.400000 -5.473146
155.420000 -4.841412
155.440000 -4.022943
155.460000 -3.178456
155.480000 -2.514290
155.500000 -1.401331
155.520000 -0.726411
155.540000 -0.067622
155.560000 0.834769
155.580000 1.619237
155.600000 2.415553
155.620000 3.079592
155.640000 3.814391
155.660000 4.769715
155.680000 5.464562
155.700000 5.956430
155.720000 6.807680
155.740000 7.170494
155.760000 7.764418
155.780000 8.383493
155.800000 8.440473
155.820000 9.071927
155.840000 9.466150
155.860000 9.710312
155.880000 10.074970
155.900000 10.120510
155.920000 10.366590
155.940000 10.480930
155.960000 10.429900
155.980000 10.044380
156.000000 9.929059
156.020000 9.978645
156.040000 9.557858
156.060000 9.023419
156.080000 8.667678
156.100000 8.432547
156.120000 7.878308
156.140000 7.272788
156.160000 6.463968
156.180000 6.012401
156.200000 5.580117
156.220000 4.730183
156.240000 3.972167
156.260000 3.372655
156.280000 2.910068
156.300000 2.251223
156.320000 1.306836
156.340000 0.527157
156.360000 -0.117502
156.380000 -0.794005
156.400000 -1.748362
156.420000 -2.805280
156.440000 -3.523261
156.460000 -4.023615
156.480000 -4.914495
156.500000 -5.966750
156.520000 -6.732706
156.540000 -7.081656
156.560000 -7.845050
156.580000 -8.688697
156.600000 -9.237166
156.620000 -9.483388
156.640000 -9.581467
156.660000 -10.268500
156.680000 -10.507970
156.700000 -10.393560
156.720000 -10.383790
156.740000 -10.483770
156.760000 -10.730490
156.780000 -10.400710
156.800000 -10.079090
156.820000 -9.877134
156.840000 -9.689265
156.860000 -9.370198
156.880000 -8.755031
156.900000 -8.150001
156.920000 -7.800239
156.940000 -7.526263
156.960000 -6.584509
156.980000 -5.862229
157.000000 -5.368891
157.020000 -4.778635
157.040000 -3.990175
157.060000 -2.819970
157.080000 -2.148130
157.100000 -1.647972
157.120000 -0.744965
157.140000 0.364592
157.160000 1.115144
157.180000 1.545327
157.200000 2.373935
157.220000 3.416009
157.240000 4.270677
157.260000 4.728741
157.280000 5.346849
157.300000 6.217313
157.320000 7.012452
157.340000 7.439498
157.360000 7.648149
157.380000 8.258401
157.400000 8.990413
157.420000 9.391988
157.440000 9.363911
157.460000 9.666650
157.480000 10.320470
157.500000 10.561980
157.520000 10.293260
157.540000 10.111070
157.560000 10.414470
157.580000 10.542100
157.600000 10.019770
157.620000 9.456893
157.640000 9.520287
157.660000 9.564677
157.680000 8.808187
157.700000 8.030748
157.720000 7.673117
157.740000 7.432637
157.760000 6.780038
157.780000 5.699160
157.800000 5.010628
157.820000 4.781982
157.840000 4.187455
157.860000 3.111352
157.880000 2.246840
157.900000 1.812904
157.920000 1.351689
157.940000 0.333098
157.960000 -0.835959
157.980000 -1.422602
158.000000 -1.792697
158.020000 -2.701641
158.040000 -3.947479
158.060000 -4.671201
158.080000 -5.013191
158.100000 -5.780422
158.120000 -6.993855
158.140000 -7.859375
158.160000 -8.064301
158.180000 -8.499483
158.200000 -9.418496
158.220000 -10.040580
158.240000 -10.047360
158.260000 -10.034740
158.280000 -10.494990
158.300000 -10.926380
158.320000 -10.811830
158.340000 -10.525710
158.360000 -10.607790
158.380000 -10.766810
158.400000 -10.499860
158.420000 -9.890340
158.440000 -9.495123
158.460000 -9.343984
158.480000 -8.957463
158.500000 -8.228210
158.520000 -7.510902
158.540000 -7.221480
158.560000 -6.835015
158.580000 -5.898316
158.600000 -4.973464
158.620000 -4.372649
158.640000 -3.824025
158.660000 -2.863716
158.680000 -1.689268
158.700000 -0.967101
158.720000 -0.471451
158.740000 0.368051
158.760000 1.497604
158.780000 2.284887
158.800000 2.761996
158.820000 3.489849
158.840000 4.567240
158.860000 5.434958
158.880000 5.872242
158.900000 6.361183
158.920000 7.147682
158.940000 7.911566
158.960000 8.209866
158.980000 8.395648
159.000000 8.913017
159.020000 9.606673
159.040000 9.899974
159.060000 9.824496
159.080000 10.121690
159.100000 10.520010
159.120000 10.667440
159.140000 10.345730
159.160000 10.064860
159.180000 10.272720
159.200000 10.225900
159.220000 9.689755
159.240000 9.176252
159.260000 9.009738
159.280000 8.834990
159.300000 8.147172
159.320000 7.242485
159.340000 6.756386
159.360000 6.435961
159.380000 5.693545
159.400000 4.743024
159.420000 4.036540
159.440000 3.711704
159.460000 3.117345
159.480000 2.122644
159.500000 1.289626
159.520000 0.782970
159.540000 0.234178
159.560000 -0.764864
159.580000 -1.758767
159.600000 -2.331588
159.620000 -2.861000
159.640000 -3.680505
159.660000 -4.705481
159.680000 -5.447323
159.700000 -5.919013
159.720000 -6.702739
159.740000 -7.742195
159.760000 -8.488589
159.780000 -8.833183
159.800000 -9.272833
159.820000 -9.940444
159.840000 -10.395260
159.860000 -10.462710
159.880000 -10.464370
159.900000 -10.733500
159.920000 -11.001000
159.940000 -10.835020
159.960000 -10.558850
159.980000 -10.519360
160.000000 -10.411070
160.020000 -10.005870
160.040000 -9.425946
160.060000 -8.977040
160.080000 -8.625836
160.100000 -8.103160
160.120000 -7.412808
160.140000 -6.754412
160.160000 -6.239340
160.180000 -5.654153
160.200000 -4.797665
160.220000 -3.909474
160.240000 -3.160140
160.260000 -2.483217
160.280000 -1.573292
160.300000 -0.576168
160.320000 0.160269
160.340000 0.748718
160.360000 1.564904
160.380000 2.501715
160.400000 3.271634
160.420000 3.860364
160.440000 4.594042
160.460000 5.515604
160.480000 6.204331
160.500000 6.693623
160.520000 7.227543
160.540000 7.820992
160.560000 8.349815
160.580000 8.681961
160.600000 9.009724
160.620000 9.402798
160.640000 9.848287
160.660000 10.139680
160.680000 10.221170
160.700000 10.330300
160.720000 10.460260
160.740000 10.482950
160.760000 10.212870
160.780000 9.930683
160.800000 9.836553
160.820000 9.662939
160.840000 9.191137
160.860000 8.656013
160.880000 8.308057
160.900000 7.942485
160.920000 7.289802
160.940000 6.485225
160.960000 5.975222
160.980000 5.426654
161.000000 4.725940
161.020000 3.996561
161.040000 3.309556
161.060000 2.805140
161.080000 2.097676
161.100000 1.263160
161.120000 0.534817
161.140000 -0.237441
161.160000 -0.994743
161.180000 -1.836331
161.200000 -2.783393
161.220000 -3.547767
161.240000 -4.264851
161.260000 -5.049544
161.280000 -5.888990
161.300000 -6.731768
161.320000 -7.334193
161.340000 -7.927558
161.360000 -8.691231
161.380000 -9.222421
161.400000 -9.578288
161.420000 -9.834522
161.440000 -10.177510
161.460000 -10.433420
161.480000 -10.455140
161.500000 -10.466840
161.520000 -10.545470
161.540000 -10.563150
161.560000 -10.394540
161.580000 -10.135680
161.600000 -9.912703
161.620000 -9.597907
161.640000 -9.183394
161.660000 -8.722893
161.680000 -8.229974
161.700000 -7.728822
161.720000 -7.187900
161.740000 -6.581974
161.760000 -5.937903
161.780000 -5.254567
161.800000 -4.572267
161.820000 -3.783906
161.840000 -2.907267
161.860000 -2.141857
161.880000 -1.352459
161.900000 -0.560177
161.920000 0.274564
161.940000 1.079576
161.960000 1.767911
161.980000 2.558807
162.000000 3.403448
162.020000 4.161982
162.040000 4.862627
162.060000 5.579809
162.080000 6.271085
162.100000 6.879952
162.120000 7.411870
162.140000 7.904648
162.160000 8.358469
162.180000 8.824193
162.200000 9.214789
162.220000 9.559986
162.240000 9.852306
162.260000 10.090200
162.280000 10.317680
162.300000 10.388640
162.320000 10.291560
162.340000 10.272390
162.360000 10.181890
162.380000 9.975872
162.400000 9.696071
162.420000 9.423481
162.440000 9.137000
162.460000 8.748869
162.480000 8.199671
162.500000 7.659995
162.520000 7.150721
162.540000 6.515486
162.560000 5.802701
162.580000 5.164063
162.600000 4.535634
162.620000 3.869872
162.640000 3.174409
162.660000 2.453348
162.680000 1.757647
162.700000 1.041570
162.720000 0.245563
162.740000 -0.536189
162.760000 -1.347068
162.780000 -2.124059
162.800000 -2.858143
162.820000 -3.678068
162.840000 -4.464637
162.860000 -5.218606
162.880000 -5.996255
162.900000 -6.779604
162.920000 -7.544888
162.940000 -8.215201
162.960000 -8.728844
162.980000 -9.300588
163.000000 -9.789417
163.020000 -10.035750
163.040000 -10.294130
163.060000 -10.505720
163.080000 -10.649690
163.100000 -10.715740
163.120000 -10.694580
163.140000 -10.676470
163.160000 -10.567650
163.180000 -10.302850
163.200000 -10.010670
163.220000 -9.646723
163.240000 -9.179361
163.260000 -8.733914
163.280000 -8.227216
163.300000 -7.715463
163.320000 -7.139728
163.340000 -6.496974
163.360000 -5.898904
163.380000 -5.131940
163.400000 -4.320739
163.420000 -3.594580
163.440000 -2.698869
163.460000 -1.850573
163.480000 -1.015930
163.500000 -0.202083
163.520000 0.520911
163.540000 1.392705
163.560000 2.184301
163.580000 2.884371
163.600000 3.709044
163.620000 4.512109
163.640000 5.240592
163.660000 5.957382
163.680000 6.553757
163.700000 7.175941
163.720000 7.712620
163.740000 8.136852
163.760000 8.611440
163.780000 9.003548
163.800000 9.366138
163.820000 9.742198
163.840000 10.021310
163.860000 10.246120
163.880000 10.338430
163.900000 10.468570
163.920000 10.437610
163.940000 10.264590
163.960000 10.137180
163.980000 9.936467
164.000000 9.729875
164.020000 9.378530
164.040000 8.951834
164.060000 8.592157
164.080000 8.076708
164.100000 7.429570
164.120000 6.837620
164.140000 6.195131
164.160000 5.540894
164.180000 4.867556
164.200000 4.174964
164.220000 3.546689
164.240000 2.886458
164.260000 2.170368
164.280000 1.478489
164.300000 0.722280
164.320000 -0.039812
164.340000 -0.795489
164.360000 -1.548338
164.380000 -2.340439
164.400000 -3.094394
164.420000 -3.787939
164.440000 -4.566820
164.460000 -5.325858
164.480000 -6.106924
164.500000 -6.887038
164.520000 -7.598297
164.540000 -8.327382
164.560000 -8.977180
164.580000 -9.440187
164.600000 -9.867850
164.620000 -10.219660
164.640000 -10.475930
164.660000 -10.624900
164.680000 -10.735680
164.700000 -10.799450
164.720000 -10.808600
164.740000 -10.739990
164.760000 -10.533420
164.780000 -10.293750
164.800000 -9.973758
164.820000 -9.527694
164.840000 -9.053526
164.860000 -8.531943
164.880000 -8.001425
164.900000 -7.458193
164.920000 -6.836835
164.940000 -6.213364
164.960000 -5.540096
164.980000 -4.795523
165.000000 -4.008436
165.020000 -3.151472
165.040000 -2.318593
165.060000 -1.496302
165.080000 -0.639954
165.100000 0.150928
165.120000 0.936363
165.140000 1.718171
165.160000 2.455812
165.180000 3.279644
165.200000 4.042394
165.220000 4.802132
165.240000 5.516038
165.260000 6.159129
165.280000 6.876913
165.300000 7.388498
165.320000 7.837964
165.340000 8.322019
165.360000 8.728802
165.380000 9.163635
165.400000 9.459050
165.420000 9.774742
165.440000 10.120290
165.460000 10.297780
165.480000 10.370670
165.500000 10.407220
165.520000 10.334180
165.540000 10.216230
165.560000 9.985506
165.580000 9.719554
165.600000 9.499604
165.620000 9.117200
165.640000 8.715821
165.660000 8.255811
165.680000 7.687946
165.700000 7.190995
165.720000 6.538018
165.740000 5.883164
165.760000 5.264706
165.780000 4.585248
165.800000 3.992990
165.820000 3.340027
165.840000 2.633529
165.860000 1.989962
165.880000 1.279670
165.900000 0.534718
165.920000 -0.274676
165.940000 -1.100343
165.960000 -1.896602
165.980000 -2.697384
166.000000 -3.548425
166.020000 -4.329309
166.040000 -5.077719
166.060000 -5.864204
166.080000 -6.624362
166.100000 -7.392685
166.120000 -8.011410
166.140000 -8.588489
166.160000 -9.151396
166.180000 -9.543098
166.200000 -9.885256
166.220000 -10.095220
166.240000 -10.300040
166.260000 -10.422400
166.280000 -10.469810
166.300000 -10.482040
166.320000 -10.453120
166.340000 -10.340700
166.360000 -10.117120
166.380000 -9.879949
166.400000 -9.482183
166.420000 -9.136706
166.440000 -8.734250
166.460000 -8.191885
166.480000 -7.703098
166.500000 -7.159627
166.520000 -6.592785
166.540000 -5.973584
166.560000 -5.260098
166.580000 -4.533212
166.600000 -3.784242
166.620000 -2.969092
166.640000 -2.118597
166.660000 -1.345541
166.680000 -0.543022
166.700000 0.247384
166.720000 1.017064
166.740000 1.827873
166.760000 2.561188
166.780000 3.360066
166.800000 4.145332
166.820000 4.892538
166.840000 5.607424
166.860000 6.254534
166.880000 6.852561
166.900000 7.425481
166.920000 7.960270
166.940000 8.383927
166.960000 8.821701
166.980000 9.279667
167.000000 9.623981
167.020000 9.923373
167.040000 10.136150
167.060000 10.342440
167.080000 10.414990
167.100000 10.392640
167.120000 10.286260
167.140000 10.136810
167.160000 10.038080
167.180000 9.720913
167.200000 9.424335
167.220000 9.117732
167.240000 8.694228
167.260000 8.215523
167.280000 7.665877
167.300000 7.069305
167.320000 6.475633
167.340000 5.838031
167.360000 5.138843
167.380000 4.506227
167.400000 3.830859
167.420000 3.144890
167.440000 2.489995
167.460000 1.704084
167.480000 0.948350
167.500000 0.228549
167.520000 -0.606612
167.540000 -1.399286
167.560000 -2.209731
167.580000 -3.007069
167.600000 -3.758896
167.620000 -4.553573
167.640000 -5.411755
167.660000 -6.141274
167.680000 -6.916403
167.700000 -7.654660
167.720000 -8.271340
167.740000 -8.913325
167.760000 -9.325472
167.780000 -9.746665
167.800000 -10.096220
167.820000 -10.301000
167.840000 -10.511680
167.860000 -10.591010
167.880000 -10.697760
167.900000 -10.713530
167.920000 -10.601890
167.940000 -10.492270
167.960000 -10.253570
167.980000 -9.930963
168.000000 -9.563697
168.020000 -9.123557
168.040000 -8.674483
168.060000 -8.197823
168.080000 -7.631765
168.100000 -7.125991
168.120000 -6.490644
168.140000 -5.801161
168.160000 -5.116578
168.180000 -4.288545
168.200000 -3.516777
168.220000 -2.658189
168.240000 -1.811686
168.260000 -1.013816
168.280000 -0.178445
168.300000 0.594219
168.320000 1.408543
168.340000 2.185001
168.360000 2.960032
168.380000 3.789255
168.400000 4.540606
168.420000 5.284058
168.440000 5.966078
168.460000 6.622878
168.480000 7.176221
168.500000 7.696866
168.520000 8.177700
168.540000 8.614255
168.560000 9.019484
168.580000 9.381499
168.600000 9.705229
168.620000 10.043630
168.640000 10.232780
168.660000 10.309710
168.680000 10.423690
168.700000 10.368790
168.720000 10.256600
168.740000 10.128140
168.760000 9.885186
168.780000 9.684518
168.800000 9.370170
168.820000 8.948977
168.840000 8.561994
168.860000 7.998079
168.880000 7.435675
168.900000 6.829260
168.920000 6.171101
168.940000 5.538625
168.960000 4.829187
168.980000 4.204161
169.000000 3.559950
169.020000 2.818472
169.040000 2.132181
169.060000 1.441717
169.080000 0.671755
169.100000 -0.087927
169.120000 -0.891062
169.140000 -1.615806
169.160000 -2.334613
169.180000 -3.142355
169.200000 -3.864817
169.220000 -4.597249
169.240000 -5.376508
169.260000 -6.147002
169.280000 -6.956550
169.300000 -7.681407
169.320000 -8.365051
169.340000 -8.941093
169.360000 -9.465841
169.380000 -9.898209
169.400000 -10.226910
169.420000 -10.452910
169.440000 -10.617320
169.460000 -10.777610
169.480000 -10.822600
169.500000 -10.793820
169.520000 -10.709960
169.540000 -10.565390
169.560000 -10.284100
169.580000 -9.917478
169.600000 -9.491412
169.620000 -9.062797
169.640000 -8.565901
169.660000 -8.003512
169.680000 -7.461708
169.700000 -6.858401
169.720000 -6.197120
169.740000 -5.535013
169.760000 -4.754199
169.780000 -3.950154
169.800000 -3.123983
169.820000 -2.276625
169.840000 -1.435317
169.860000 -0.573130
169.880000 0.214868
169.900000 0.979522
169.920000 1.781802
169.940000 2.585932
169.960000 3.338641
169.980000 4.100620
170.000000 4.883352
170.020000 5.629661
170.040000 6.269573
170.060000 6.832382
170.080000 7.454902
170.100000 7.958883
170.120000 8.318700
170.140000 8.756501
170.160000 9.163439
170.180000 9.507824
170.200000 9.814735
170.220000 10.059720
170.240000 10.271860
170.260000 10.376370
170.280000 10.349150
170.300000 10.315820
170.320000 10.170770
170.340000 9.959096
170.360000 9.729021
170.380000 9.436140
170.400000 9.092260
170.420000 8.649039
170.440000 8.186088
170.460000 7.707383
170.480000 7.076307
170.500000 6.467203
170.520000 5.893149
170.540000 5.216968
170.560000 4.578933
170.580000 3.897893
170.600000 3.308323
170.620000 2.689809
170.640000 1.898436
170.660000 1.204710
170.680000 0.480764
170.700000 -0.290724
170.720000 -1.096940
170.740000 -1.962796
170.760000 -2.699331
170.780000 -3.485592
170.800000 -4.356825
170.820000 -5.078797
170.840000 -5.891062
170.860000 -6.684227
170.880000 -7.346698
170.900000 -8.076539
170.920000 -8.660382
170.940000 -9.160932
170.960000 -9.600890
170.980000 -9.862025
171.000000 -10.168910
171.020000 -10.372840
171.040000 -10.423710
171.060000 -10.488690
171.080000 -10.546230
171.100000 -10.509430
171.120000 -10.317410
171.140000 -10.104840
171.160000 -9.860708
171.180000 -9.517948
171.200000 -9.064659
171.220000 -8.640987
171.240000 -8.178596
171.260000 -7.671562
171.280000 -7.099455
171.300000 -6.514702
171.320000 -5.929529
171.340000 -5.207096
171.360000 -4.461907
171.380000 -3.699745
171.400000 -2.872244
171.420000 -2.063900
171.440000 -1.261493
171.460000 -0.462461
171.480000 0.311603
171.500000 1.103157
171.520000 1.866635
171.540000 2.642001
171.560000 3.458467
171.580000 4.211989
171.600000 4.919579
171.620000 5.679933
171.640000 6.335291
171.660000 6.892345
171.680000 7.443783
171.700000 7.962916
171.720000 8.443316
171.740000 8.870404
171.760000 9.244574
171.780000 9.631739
171.800000 9.960748
171.820000 10.150030
171.840000 10.288020
171.860000 10.401460
171.880000 10.381270
171.900000 10.243060
171.920000 10.142460
171.940000 9.942334
171.960000 9.700006
171.980000 9.424630
172.000000 9.048429
172.020000 8.647401
172.040000 8.153992
172.060000 7.588102
172.080000 7.046074
172.100000 6.379009
172.120000 5.724800
172.140000 5.093248
172.160000 4.427752
172.180000 3.757075
172.200000 3.037442
172.220000 2.389296
172.240000 1.687532
172.260000 0.866178
172.280000 0.112013
172.300000 -0.651353
172.320000 -1.459249
172.340000 -2.235427
172.360000 -3.067521
172.380000 -3.841095
172.400000 -4.567170
172.420000 -5.409262
172.440000 -6.205410
172.460000 -6.956452
172.480000 -7.678340
172.500000 -8.296476
172.520000 -8.891059
172.540000 -9.386344
172.560000 -9.770177
172.580000 -10.028520
172.600000 -10.274730
172.620000 -10.511140
172.640000 -10.587690
172.660000 -10.630640
172.680000 -10.653620
172.700000 -10.578340
172.720000 -10.429650
172.740000 -10.183880
172.760000 -9.843694
172.780000 -9.488373
172.800000 -9.052686
172.820000 -8.578490
172.840000 -8.128842
172.860000 -7.577179
172.880000 -7.006192
172.900000 -6.434225
172.920000 -5.763660
172.940000 -5.004887
172.960000 -4.226594
172.980000 -3.446242
173.000000 -2.583985
173.020000 -1.741081
173.040000 -0.934473
173.060000 -0.162943
173.080000 0.622043
173.100000 1.459893
173.120000 2.186388
173.140000 2.983571
173.160000 3.798273
173.180000 4.542300
173.200000 5.283218
173.220000 5.977897
173.240000 6.593709
173.260000 7.167553
173.280000 7.676295
173.300000 8.179436
173.320000 8.615823
173.340000 8.969618
173.360000 9.403400
173.380000 9.770443
173.400000 10.019350
173.420000 10.192760
173.440000 10.356430
173.460000 10.450770
173.480000 10.351400
173.500000 10.224320
173.520000 10.144260
173.540000 9.951520
173.560000 9.656791
173.580000 9.345343
173.600000 8.987402
173.620000 8.561112
173.640000 8.001607
173.660000 7.380418
173.680000 6.808003
173.700000 6.173986
173.720000 5.469813
173.740000 4.795565
173.760000 4.167948
173.780000 3.481251
173.800000 2.816763
173.820000 2.091907
173.840000 1.332784
173.860000 0.667008
173.880000 -0.153043
173.900000 -0.918299
173.920000 -1.675657
173.940000 -2.457157
173.960000 -3.120678
173.980000 -3.906869
174.000000 -4.712889
174.020000 -5.421641
174.040000 -6.194907
174.060000 -6.988086
174.080000 -7.745108
174.100000 -8.445668
174.120000 -8.969198
174.140000 -9.470309
174.160000 -9.966798
174.180000 -10.268090
174.200000 -10.475060
174.220000 -10.618860
174.240000 -10.768000
174.260000 -10.864390
174.280000 -10.789920
174.300000 -10.690440
174.320000 -10.512720
174.340000 -10.299350
174.360000 -9.890059
174.380000 -9.413931
174.400000 -9.026640
174.420000 -8.491963
174.440000 -7.953338
174.460000 -7.367423
174.480000 -6.731712
174.500000 -6.151091
174.520000 -5.436345
174.540000 -4.644076
174.560000 -3.865741
174.580000 -3.040761
174.600000 -2.189426
174.620000 -1.362177
174.640000 -0.522830
174.660000 0.292180
174.680000 1.020649
174.700000 1.811237
174.720000 2.608645
174.740000 3.370484
174.760000 4.100942
174.780000 4.868606
174.800000 5.635613
174.820000 6.278311
174.840000 6.846218
174.860000 7.402838
174.880000 7.973559
174.900000 8.372781
174.920000 8.717362
174.940000 9.144660
174.960000 9.529347
174.980000 9.840053
175.000000 10.042230
175.020000 10.268960
175.040000 10.403600
175.060000 10.389990
175.080000 10.283500
175.100000 10.161650
175.120000 10.009690
175.140000 9.728629
175.160000 9.449430
175.180000 9.097287
175.200000 8.656041
175.220000 8.194252
175.240000 7.675175
175.260000 7.084317
175.280000 6.454796
175.300000 5.846363
175.320000 5.196103
175.340000 4.545843
175.360000 3.883820
175.380000 3.236598
175.400000 2.616375
175.420000 1.896658
175.440000 1.129582
175.460000 0.416936
175.480000 -0.324878
175.500000 -1.179055
175.520000 -2.002971
175.540000 -2.811834
175.560000 -3.605587
175.580000 -4.363449
175.600000 -5.217990
175.620000 -6.000386
175.640000 -6.686509
175.660000 -7.449049
175.680000 -8.129626
175.700000 -8.708091
175.720000 -9.210742
175.740000 -9.579619
175.760000 -9.960958
175.780000 -10.206870
175.800000 -10.318590
175.820000 -10.472820
175.840000 -10.531890
175.860000 -10.552400
175.880000 -10.448750
175.900000 -10.300400
175.920000 -10.165720
175.940000 -9.785986
175.960000 -9.426912
175.980000 -9.082121
176.000000 -8.632039
176.020000 -8.130677
176.040000 -7.577235
176.060000 -7.071056
176.080000 -6.520149
176.100000 -5.768281
176.120000 -5.138479
176.140000 -4.449920
176.160000 -3.588447
176.180000 -2.801247
176.200000 -2.005436
176.220000 -1.208729
176.240000 -0.404081
176.260000 0.412245
176.280000 1.132256
176.300000 1.900145
176.320000 2.753804
176.340000 3.486922
176.360000 4.220391
176.380000 4.984358
176.400000 5.734799
176.420000 6.345093
176.440000 6.893815
176.460000 7.492823
176.480000 8.023901
176.500000 8.447685
176.520000 8.847607
176.540000 9.269304
176.560000 9.657464
176.580000 9.909608
176.600000 10.152550
176.620000 10.290790
176.640000 10.348280
176.660000 10.356330
176.680000 10.261540
176.700000 10.088190
176.720000 9.899274
176.740000 9.687235
176.760000 9.402266
176.780000 9.014009
176.800000 8.569808
176.820000 8.125089
176.840000 7.616277
176.860000 6.972192
176.880000 6.317941
176.900000 5.748060
176.920000 5.098038
176.940000 4.388697
176.960000 3.736070
176.980000 3.059694
177.000000 2.385641
177.020000 1.650745
177.040000 0.836575
177.060000 0.138647
177.080000 -0.694371
177.100000 -1.497184
177.120000 -2.266529
177.140000 -3.107739
177.160000 -3.892908
177.180000 -4.699404
177.200000 -5.460809
177.220000 -6.259967
177.240000 -7.088462
177.260000 -7.709399
177.280000 -8.342127
177.300000 -8.966229
177.320000 -9.406243
177.340000 -9.821793
177.360000 -10.048730
177.380000 -10.280450
177.400000 -10.548180
177.420000 -10.555670
177.440000 -10.614310
177.460000 -10.677160
177.480000 -10.522760
177.500000 -10.410190
177.520000 -10.146240
177.540000 -9.816360
177.560000 -9.476498
177.580000 -8.978678
177.600000 -8.603934
177.620000 -8.119852
177.640000 -7.502177
177.660000 -7.001361
177.680000 -6.429870
177.700000 -5.697214
177.720000 -4.928401
177.740000 -4.194568
177.760000 -3.449561
177.780000 -2.541331
177.800000 -1.674593
177.820000 -0.911465
177.840000 -0.167382
177.860000 0.682804
177.880000 1.567985
177.900000 2.240020
177.920000 2.984033
177.940000 3.891662
177.960000 4.669703
177.980000 5.325438
178.000000 6.005288
178.020000 6.679886
178.040000 7.271066
178.060000 7.767765
178.080000 8.175137
178.100000 8.658911
178.120000 9.120686
178.140000 9.436784
178.160000 9.761649
178.180000 10.040130
178.200000 10.237220
178.220000 10.375120
178.240000 10.400610
178.260000 10.309010
178.280000 10.256600
178.300000 10.149070
178.320000 9.887161
178.340000 9.622427
178.360000 9.283532
178.380000 8.984868
178.400000 8.540303
178.420000 7.878350
178.440000 7.347146
178.460000 6.795526
178.480000 6.139412
178.500000 5.414276
178.520000 4.705635
178.540000 4.126148
178.560000 3.495646
178.580000 2.739815
178.600000 1.960723
178.620000 1.298546
178.640000 0.629731
178.660000 -0.192434
178.680000 -1.039148
178.700000 -1.751093
178.720000 -2.418241
178.740000 -3.174801
178.760000 -4.018028
178.780000 -4.799780
178.800000 -5.402359
178.820000 -6.216388
178.840000 -7.084723
178.860000 -7.803880
178.880000 -8.433527
178.900000 -8.945981
178.920000 -9.563949
178.940000 -10.011310
178.960000 -10.224800
178.980000 -10.466300
179.000000 -10.699470
179.020000 -10.827070
179.040000 -10.819460
179.060000 -10.796530
179.080000 -10.732610
179.100000 -10.557800
179.120000 -10.276260
179.140000 -9.881391
179.160000 -9.448225
179.180000 -9.027004
179.200000 -8.493840
179.220000 -7.922460
179.240000 -7.386692
179.260000 -6.739344
179.280000 -6.134049
179.300000 -5.404767
179.320000 -4.591368
179.340000 -3.860532
179.360000 -3.018748
179.380000 -2.118933
179.400000 -1.269489
179.420000 -0.482500
179.440000 0.288007
179.460000 1.156804
179.480000 1.947434
179.500000 2.640895
179.520000 3.422675
179.540000 4.268828
179.560000 5.012547
179.580000 5.690842
179.600000 6.320349
179.620000 6.962306
179.640000 7.553682
179.660000 7.973615
179.680000 8.365639
179.700000 8.820888
179.720000 9.251702
179.740000 9.521323
179.760000 9.832324
179.780000 10.092480
179.800000 10.275880
179.820000 10.389770
179.840000 10.335700
179.860000 10.236780
179.880000 10.153040
179.900000 9.988937
179.920000 9.661048
179.940000 9.363925
179.960000 9.069448
179.980000 8.646112