90 Deg Fixed Reg 11 13-Apr-2018
Time(s) LoadCell(N)
0.000000 -0.161711
0.020000 -0.210120
0.040000 -0.194227
0.060000 -0.185587
0.080000 -0.184522
0.100000 -0.208160
0.120000 -0.240928
0.140000 -0.198358
0.160000 -0.188429
0.180000 -0.255561
0.200000 -0.217808
0.220000 -0.201284
0.240000 -0.225342
0.260000 -0.219573
0.280000 -0.225762
0.300000 -0.230565
0.320000 -0.225888
0.340000 -0.249652
0.360000 -0.245157
0.380000 -0.232638
0.400000 -0.268263
0.420000 -0.244009
0.440000 -0.220595
0.460000 -0.276734
0.480000 -0.249190
0.500000 -0.240634
0.520000 -0.249610
0.540000 -0.243462
0.560000 -0.261261
0.580000 -0.235691
0.600000 -0.240508
0.620000 -0.236153
0.640000 -0.240270
0.660000 -0.212515
0.680000 -0.216072
0.700000 -0.220959
0.720000 -0.187379
0.740000 -0.188247
0.760000 -0.194857
0.780000 -0.174160
0.800000 -0.146377
0.820000 -0.174146
0.840000 -0.154107
0.860000 -0.150886
0.880000 -0.157524
0.900000 -0.161123
0.920000 -0.182954
0.940000 -0.181288
0.960000 -0.168684
0.980000 -0.208146
1.000000 -0.194563
1.020000 -0.200304
1.040000 -0.223452
1.060000 -0.224222
1.080000 -0.229963
1.100000 -0.217444
1.120000 -0.245423
1.140000 -0.244653
1.160000 -0.236083
1.180000 -0.231518
1.200000 -0.246235
1.220000 -0.257186
1.240000 -0.241852
1.260000 -0.223774
1.280000 -0.257200
1.300000 -0.225706
1.320000 -0.228703
1.340000 -0.203287
1.360000 -0.205765
1.380000 -0.205989
1.400000 -0.174272
1.420000 -0.192308
1.440000 -0.184018
1.460000 -0.155773
1.480000 -0.172367
1.500000 -0.174888
1.520000 -0.143871
1.540000 -0.173936
1.560000 -0.163797
1.580000 -0.183346
1.600000 -0.186217
1.620000 -0.142190
1.640000 -0.217976
1.660000 -0.215246
1.680000 -0.172998
1.700000 -0.202293
1.720000 -0.211283
1.740000 -0.239598
1.760000 -0.198988
1.780000 -0.220805
1.800000 -0.242762
1.820000 -0.231434
1.840000 -0.226532
1.860000 -0.237287
1.880000 -0.271077
1.900000 -0.234178
1.920000 -0.249428
1.940000 -0.263319
1.960000 -0.284534
1.980000 -0.253293
2.000000 -0.262437
2.020000 -0.323352
2.040000 -0.278695
2.060000 -0.286873
2.080000 -0.312779
2.100000 -0.321629
2.120000 -0.318128
2.140000 -0.292586
2.160000 -0.331264
2.180000 -0.334386
2.200000 -0.329863
2.220000 -0.291830
2.240000 -0.368723
2.260000 -0.360503
2.280000 -0.294729
2.300000 -0.370669
2.320000 -0.365306
2.340000 -0.343054
2.360000 -0.355363
2.380000 -0.386563
2.400000 -0.381732
2.420000 -0.370445
2.440000 -0.384771
2.460000 -0.392290
2.480000 -0.431584
2.500000 -0.374156
2.520000 -0.403731
2.540000 -0.455628
2.560000 -0.401953
2.580000 -0.423980
2.600000 -0.437997
2.620000 -0.444145
2.640000 -0.417454
2.660000 -0.428769
2.680000 -0.437787
2.700000 -0.443487
2.720000 -0.425226
2.740000 -0.420675
2.760000 -0.450194
2.780000 -0.447870
2.800000 -0.410439
2.820000 -0.419303
2.840000 -0.454381
2.860000 -0.396197
2.880000 -0.410411
2.900000 -0.445867
2.920000 -0.402821
2.940000 -0.425744
2.960000 -0.413547
2.980000 -0.393509
3.000000 -0.424974
3.020000 -0.365978
3.040000 -0.364662
3.060000 -0.391968
3.080000 -0.315076
3.100000 -0.332370
3.120000 -0.328771
3.140000 -0.279087
3.160000 -0.282406
3.180000 -0.244541
3.200000 -0.263893
3.220000 -0.221519
3.240000 -0.172367
3.260000 -0.194283
3.280000 -0.139277
3.300000 -0.125946
3.320000 -0.100208
3.340000 -0.076290
3.360000 -0.084020
3.380000 -0.010096
3.400000 0.019661
3.420000 0.007170
3.440000 0.062581
3.460000 0.087899
3.480000 0.131982
3.500000 0.145621
3.520000 0.159666
3.540000 0.247944
3.560000 0.242482
3.580000 0.266456
3.600000 0.337131
3.620000 0.353165
3.640000 0.386115
3.660000 0.414668
3.680000 0.454045
3.700000 0.502693
3.720000 0.521877
3.740000 0.553875
3.760000 0.594121
3.780000 0.668969
3.800000 0.660483
3.820000 0.691248
3.840000 0.803793
3.860000 0.774862
3.880000 0.841826
3.900000 0.912893
3.920000 0.902027
3.940000 0.990220
3.960000 1.032244
3.980000 1.033546
4.000000 1.142227
4.020000 1.113352
4.040000 1.179784
4.060000 1.239200
4.080000 1.221010
4.100000 1.303839
4.120000 1.332630
4.140000 1.356464
4.160000 1.454572
4.180000 1.420235
4.200000 1.518777
4.220000 1.543087
4.240000 1.541140
4.260000 1.659553
4.280000 1.633087
4.300000 1.689352
4.320000 1.741879
4.340000 1.748096
4.360000 1.823252
4.380000 1.811139
4.400000 1.838754
4.420000 1.911263
4.440000 1.879294
4.460000 1.918979
4.480000 1.932086
4.500000 1.929230
4.520000 1.976757
4.540000 1.925407
4.560000 1.940404
4.580000 1.948904
4.600000 1.877739
4.620000 1.853738
4.640000 1.815999
4.660000 1.751569
4.680000 1.718745
4.700000 1.667857
4.720000 1.601089
4.740000 1.562524
4.760000 1.508191
4.780000 1.446660
4.800000 1.384303
4.820000 1.300311
4.840000 1.228417
4.860000 1.156790
4.880000 1.079463
4.900000 0.949834
4.920000 0.886987
4.940000 0.783236
4.960000 0.695925
4.980000 0.582162
5.000000 0.443151
5.020000 0.360040
5.040000 0.194465
5.060000 0.038159
5.080000 -0.102449
5.100000 -0.310189
5.120000 -0.474714
5.140000 -0.674220
5.160000 -0.899478
5.180000 -1.046878
5.200000 -1.261703
5.220000 -1.441240
5.240000 -1.549472
5.260000 -1.739652
5.280000 -1.902427
5.300000 -2.055428
5.320000 -2.247554
5.340000 -2.422988
5.360000 -2.666283
5.380000 -2.936394
5.400000 -3.134626
5.420000 -3.395438
5.440000 -3.635246
5.460000 -3.839989
5.480000 -4.015745
5.500000 -4.135614
5.520000 -4.296485
5.540000 -4.482926
5.560000 -4.578835
5.580000 -4.781968
5.600000 -4.982538
5.620000 -5.101594
5.640000 -5.229445
5.660000 -5.261191
5.680000 -5.308648
5.700000 -5.364578
5.720000 -5.294505
5.740000 -5.360741
5.760000 -5.410705
5.780000 -5.457924
5.800000 -5.534690
5.820000 -5.526050
5.840000 -5.558062
5.860000 -5.523628
5.880000 -5.438193
5.900000 -5.359788
5.920000 -5.219657
5.940000 -5.103919
5.960000 -5.045987
5.980000 -4.928275
6.000000 -4.891796
6.020000 -4.782542
6.040000 -4.665067
6.060000 -4.618870
6.080000 -4.355271
6.100000 -4.193784
6.120000 -3.970528
6.140000 -3.722585
6.160000 -3.574625
6.180000 -3.323867
6.200000 -3.207709
6.220000 -3.046292
6.240000 -2.826972
6.260000 -2.648303
6.280000 -2.368529
6.300000 -2.146170
6.320000 -1.836934
6.340000 -1.540804
6.360000 -1.325615
6.380000 -1.072476
6.400000 -0.833018
6.420000 -0.616988
6.440000 -0.344875
6.460000 -0.088529
6.480000 0.203525
6.500000 0.560555
6.520000 0.848212
6.540000 1.176745
6.560000 1.426705
6.580000 1.718157
6.600000 1.980986
6.620000 2.210697
6.640000 2.508367
6.660000 2.787300
6.680000 3.145254
6.700000 3.494274
6.720000 3.799449
6.740000 4.179361
6.760000 4.489605
6.780000 4.775106
6.800000 5.079665
6.820000 5.330717
6.840000 5.688349
6.860000 6.050869
6.880000 6.351213
6.900000 6.773106
6.920000 7.129506
6.940000 7.477321
6.960000 7.828862
6.980000 8.098959
7.000000 8.417690
7.020000 8.703260
7.040000 9.018658
7.060000 9.354739
7.080000 9.689545
7.100000 10.042180
7.120000 10.393660
7.140000 10.697060
7.160000 10.866820
7.180000 10.941670
7.200000 10.998050
7.220000 10.963290
7.240000 10.865970
7.260000 10.781350
7.280000 10.766110
7.300000 10.734360
7.320000 10.708290
7.340000 10.688810
7.360000 10.671970
7.380000 10.646050
7.400000 10.564690
7.420000 10.499420
7.440000 10.455500
7.460000 10.192480
7.480000 9.952164
7.500000 9.686170
7.520000 9.169964
7.540000 8.620724
7.560000 8.031015
7.580000 7.439106
7.600000 6.797360
7.620000 5.995905
7.640000 5.356092
7.660000 4.917884
7.680000 4.338901
7.700000 3.824403
7.720000 3.381239
7.740000 3.019196
7.760000 2.664252
7.780000 2.099231
7.800000 1.607600
7.820000 1.198268
7.840000 0.743831
7.860000 0.256654
7.880000 -0.180391
7.900000 -0.486869
7.920000 -0.762203
7.940000 -1.059859
7.960000 -1.328471
7.980000 -1.592701
8.000000 -1.861257
8.020000 -2.117155
8.040000 -2.427918
8.060000 -2.733639
8.080000 -3.011956
8.100000 -3.290847
8.120000 -3.492173
8.140000 -3.814013
8.160000 -4.136538
8.180000 -4.407181
8.200000 -4.736261
8.220000 -5.089748
8.240000 -5.521569
8.260000 -5.801034
8.280000 -6.077405
8.300000 -6.356800
8.320000 -6.713172
8.340000 -7.017535
8.360000 -7.285573
8.380000 -7.729984
8.400000 -8.151401
8.420000 -8.602408
8.440000 -9.032269
8.460000 -9.544736
8.480000 -10.215790
8.500000 -10.451800
8.520000 -10.438920
8.540000 -10.687690
8.560000 -10.907390
8.580000 -10.951320
8.600000 -11.037780
8.620000 -11.257730
8.640000 -11.349390
8.660000 -11.126470
8.680000 -10.919050
8.700000 -10.915690
8.720000 -10.510160
8.740000 -9.873269
8.760000 -9.423229
8.780000 -9.216932
8.800000 -8.974841
8.820000 -8.783065
8.840000 -8.730007
8.860000 -8.289965
8.880000 -7.851729
8.900000 -7.588340
8.920000 -7.064978
8.940000 -6.259099
8.960000 -5.405860
8.980000 -4.850304
9.000000 -4.384930
9.020000 -3.629112
9.040000 -3.292499
9.060000 -3.188735
9.080000 -2.689010
9.100000 -2.276765
9.120000 -1.917817
9.140000 -1.393685
9.160000 -0.824588
9.180000 -0.317148
9.200000 0.007884
9.220000 0.457952
9.240000 0.813400
9.260000 0.963250
9.280000 1.254225
9.300000 1.697866
9.320000 2.060917
9.340000 2.285657
9.360000 2.735824
9.380000 3.212092
9.400000 3.331541
9.420000 3.415463
9.440000 3.718790
9.460000 3.869802
9.480000 3.935548
9.500000 4.186768
9.520000 4.524922
9.540000 4.898784
9.560000 5.139613
9.580000 5.479475
9.600000 5.831744
9.620000 5.891426
9.640000 6.089070
9.660000 6.383266
9.680000 6.492759
9.700000 6.753529
9.720000 7.200153
9.740000 7.622480
9.760000 7.884357
9.780000 8.201800
9.800000 8.589987
9.820000 8.807081
9.840000 8.879605
9.860000 9.081001
9.880000 9.474790
9.900000 9.727802
9.920000 9.939449
9.940000 10.362740
9.960000 10.741070
9.980000 10.935700
10.000000 11.107880
10.020000 11.312410
10.040000 11.372410
10.060000 11.310950
10.080000 11.285130
10.100000 11.272930
10.120000 11.146850
10.140000 10.977870
10.160000 10.884120
10.180000 10.731800
10.200000 10.431950
10.220000 10.172410
10.240000 10.055610
10.260000 9.807314
10.280000 9.530663
10.300000 9.507880
10.320000 9.499085
10.340000 9.278911
10.360000 8.913297
10.380000 8.641043
10.400000 8.247213
10.420000 7.501617
10.440000 6.745422
10.460000 6.242883
10.480000 5.677161
10.500000 4.937377
10.520000 4.281375
10.540000 3.882657
10.560000 3.479402
10.580000 2.857639
10.600000 2.270940
10.620000 1.903506
10.640000 1.555256
10.660000 1.084785
10.680000 0.688223
10.700000 0.528389
10.720000 0.345631
10.740000 0.163013
10.760000 -0.010475
10.780000 -0.200514
10.800000 -0.368779
10.820000 -0.598140
10.840000 -0.756000
10.860000 -0.909407
10.880000 -1.159437
10.900000 -1.213042
10.920000 -1.232100
10.940000 -1.404846
10.960000 -1.618243
10.980000 -1.812932
11.000000 -1.945978
11.020000 -2.229840
11.040000 -2.674671
11.060000 -2.891527
11.080000 -3.070406
11.100000 -3.388451
11.120000 -3.691931
11.140000 -3.930003
11.160000 -4.104877
11.180000 -4.442316
11.200000 -4.848357
11.220000 -5.136337
11.240000 -5.471339
11.260000 -5.853141
11.280000 -6.217145
11.300000 -6.529546
11.320000 -6.839272
11.340000 -7.242177
11.360000 -7.618671
11.380000 -7.962006
11.400000 -8.489009
11.420000 -9.117816
11.440000 -9.525706
11.460000 -9.697751
11.480000 -9.905911
11.500000 -10.134960
11.520000 -10.212500
11.540000 -10.186380
11.560000 -10.314590
11.580000 -10.586390
11.600000 -10.602420
11.620000 -10.366590
11.640000 -10.287350
11.660000 -10.156450
11.680000 -9.724078
11.700000 -9.155639
11.720000 -8.755479
11.740000 -8.630541
11.760000 -8.447657
11.780000 -8.179436
11.800000 -7.897731
11.820000 -7.697496
11.840000 -7.416533
11.860000 -6.980930
11.880000 -6.402115
11.900000 -5.632546
11.920000 -4.898644
11.940000 -4.390910
11.960000 -3.805023
11.980000 -3.384418
12.000000 -3.145730
12.020000 -2.895672
12.040000 -2.652252
12.060000 -2.239810
12.080000 -1.750253
12.100000 -1.315280
12.120000 -0.764542
12.140000 -0.249288
12.160000 0.071123
12.180000 0.352997
12.200000 0.545529
12.220000 0.728021
12.240000 0.961779
12.260000 1.237029
12.280000 1.539474
12.300000 1.880078
12.320000 2.280028
12.340000 2.512484
12.360000 2.627074
12.380000 2.775313
12.400000 2.796318
12.420000 2.909059
12.440000 3.021926
12.460000 3.194322
12.480000 3.619968
12.500000 3.912779
12.520000 4.221021
12.540000 4.523031
12.560000 4.677684
12.580000 4.831918
12.600000 4.919649
12.620000 4.992326
12.640000 5.226700
12.660000 5.504303
12.680000 5.823748
12.700000 6.196742
12.720000 6.502757
12.740000 6.776439
12.760000 6.985173
12.780000 7.055260
12.800000 7.124535
12.820000 7.313188
12.840000 7.545952
12.860000 7.780872
12.880000 8.104658
12.900000 8.453552
12.920000 8.753420
12.940000 8.967602
12.960000 8.993760
12.980000 9.113699
13.000000 9.175188
13.020000 9.259838
13.040000 9.398751
13.060000 9.489255
13.080000 9.644987
13.100000 9.678203
13.120000 9.579661
13.140000 9.370128
13.160000 9.140221
13.180000 8.910734
13.200000 8.623511
13.220000 8.402706
13.240000 8.332297
13.260000 8.370918
13.280000 8.426456
13.300000 8.415183
13.320000 8.456297
13.340000 8.420770
13.360000 8.075811
13.380000 7.808613
13.400000 7.525003
13.420000 7.047124
13.440000 6.706310
13.460000 6.380788
13.480000 6.107078
13.500000 5.766124
13.520000 5.177058
13.540000 4.740490
13.560000 4.283182
13.580000 3.682367
13.600000 3.141697
13.620000 2.705380
13.640000 2.484155
13.660000 2.278404
13.680000 2.007929
13.700000 1.842395
13.720000 1.628311
13.740000 1.365650
13.760000 0.998916
13.780000 0.579109
13.800000 0.323156
13.820000 0.048228
13.840000 -0.113707
13.860000 -0.239192
13.880000 -0.441204
13.900000 -0.521401
13.920000 -0.696345
13.940000 -1.073918
13.960000 -1.432502
13.980000 -1.841331
14.000000 -2.194061
14.020000 -2.541933
14.040000 -2.925625
14.060000 -3.156695
14.080000 -3.325729
14.100000 -3.594202
14.120000 -3.920901
14.140000 -4.289035
14.160000 -4.645841
14.180000 -5.042416
14.200000 -5.468020
14.220000 -5.803961
14.240000 -6.074128
14.260000 -6.303237
14.280000 -6.577045
14.300000 -6.843039
14.320000 -7.169738
14.340000 -7.590147
14.360000 -7.990993
14.380000 -8.493924
14.400000 -8.975892
14.420000 -9.450550
14.440000 -9.956715
14.460000 -10.110890
14.480000 -10.088640
14.500000 -10.234850
14.520000 -10.279870
14.540000 -10.266330
14.560000 -10.297030
14.580000 -10.430870
14.600000 -10.657280
14.620000 -10.618280
14.640000 -10.295580
14.660000 -10.007000
14.680000 -9.703241
14.700000 -9.131119
14.720000 -8.451816
14.740000 -8.105709
14.760000 -7.958085
14.780000 -7.829394
14.800000 -7.617481
14.820000 -7.206818
14.840000 -7.013096
14.860000 -6.663726
14.880000 -6.046275
14.900000 -5.364942
14.920000 -4.556667
14.940000 -3.852368
14.960000 -3.236206
14.980000 -2.656159
15.000000 -2.226591
15.020000 -1.873930
15.040000 -1.476781
15.060000 -1.069801
15.080000 -0.537981
15.100000 0.064598
15.120000 0.573732
15.140000 1.106588
15.160000 1.670083
15.180000 2.070636
15.200000 2.302181
15.220000 2.655836
15.240000 2.964205
15.260000 3.307469
15.280000 3.713525
15.300000 4.018700
15.320000 4.443884
15.340000 4.778495
15.360000 4.888701
15.380000 5.036941
15.400000 5.061489
15.420000 5.064569
15.440000 5.145523
15.460000 5.216590
15.480000 5.331488
15.500000 5.548022
15.520000 5.733622
15.540000 5.812307
15.560000 5.833396
15.580000 5.857846
15.600000 5.785631
15.620000 5.722812
15.640000 5.651563
15.660000 5.732278
15.680000 5.931280
15.700000 5.961429
15.720000 6.117188
15.740000 6.250164
15.760000 6.276743
15.780000 6.309595
15.800000 6.275343
15.820000 6.291096
15.840000 6.469317
15.860000 6.600557
15.880000 6.834497
15.900000 7.144475
15.920000 7.394590
15.940000 7.660121
15.960000 7.853228
15.980000 7.933215
16.000000 8.080222
16.020000 8.333319
16.040000 8.494806
16.060000 8.746012
16.080000 9.143022
16.100000 9.499576
16.120000 9.736106
16.140000 9.771647
16.160000 9.636472
16.180000 9.608606
16.200000 9.412237
16.220000 9.102986
16.240000 9.033838
16.260000 8.989671
16.280000 8.977208
16.300000 8.988327
16.320000 8.878820
16.340000 8.867814
16.360000 8.806339
16.380000 8.537292
16.400000 8.235044
16.420000 7.890477
16.440000 7.628586
16.460000 7.326001
16.480000 6.788790
16.500000 6.291138
16.520000 5.936237
16.540000 5.392304
16.560000 4.635268
16.580000 3.805681
16.600000 3.211364
16.620000 2.661830
16.640000 1.990677
16.660000 1.447220
16.680000 1.093747
16.700000 0.935649
16.720000 0.609020
16.740000 0.084888
16.760000 -0.246095
16.780000 -0.558370
16.800000 -0.961359
16.820000 -1.390478
16.840000 -1.785681
16.860000 -1.951831
16.880000 -2.015981
16.900000 -2.230750
16.920000 -2.440017
16.940000 -2.633893
16.960000 -2.878854
16.980000 -3.169004
17.000000 -3.639545
17.020000 -4.074531
17.040000 -4.326718
17.060000 -4.572981
17.080000 -4.862025
17.100000 -5.173992
17.120000 -5.394433
17.140000 -5.650302
17.160000 -6.048446
17.180000 -6.534167
17.200000 -7.004232
17.220000 -7.341195
17.240000 -7.717787
17.260000 -8.131391
17.280000 -8.432015
17.300000 -8.676360
17.320000 -8.949845
17.340000 -9.284988
17.360000 -9.752154
17.380000 -10.169230
17.400000 -10.571630
17.420000 -11.028320
17.440000 -11.481570
17.460000 -11.919880
17.480000 -12.067550
17.500000 -12.008000
17.520000 -12.045930
17.540000 -12.015170
17.560000 -11.882630
17.580000 -11.638980
17.600000 -11.445220
17.620000 -11.273480
17.640000 -11.062300
17.660000 -10.967590
17.680000 -10.863840
17.700000 -10.365700
17.720000 -9.561358
17.740000 -8.908956
17.760000 -8.316907
17.780000 -7.629328
17.800000 -6.940937
17.820000 -6.641545
17.840000 -6.288884
17.860000 -5.628611
17.880000 -5.276314
17.900000 -4.919691
17.920000 -4.409730
17.940000 -3.697953
17.960000 -3.001902
17.980000 -2.480640
18.000000 -1.731278
18.020000 -1.090414
18.040000 -0.842190
18.060000 -0.521331
18.080000 -0.036171
18.100000 0.160395
18.120000 0.368134
18.140000 0.810473
18.160000 1.317367
18.180000 1.685739
18.200000 1.932381
18.220000 2.445674
18.240000 2.690635
18.260000 2.755526
18.280000 2.912434
18.300000 3.170950
18.320000 3.412130
18.340000 3.547291
18.360000 4.009556
18.380000 4.343690
18.400000 4.521925
18.420000 4.823431
18.440000 5.023176
18.460000 5.129097
18.480000 5.185110
18.500000 5.438655
18.520000 5.715222
18.540000 5.930622
18.560000 6.221668
18.580000 6.683415
18.600000 6.993407
18.620000 7.078464
18.640000 7.320358
18.660000 7.521894
18.680000 7.589558
18.700000 7.668972
18.720000 7.973013
18.740000 8.252898
18.760000 8.399205
18.780000 8.697225
18.800000 8.898257
18.820000 9.020618
18.840000 8.998199
18.860000 9.026892
18.880000 9.099107
18.900000 9.027424
18.920000 9.109288
18.940000 9.282901
18.960000 9.387395
18.980000 9.427584
19.000000 9.494534
19.020000 9.565139
19.040000 9.447987
19.060000 9.346141
19.080000 9.347107
19.100000 9.424209
19.120000 9.449402
19.140000 9.506269
19.160000 9.627944
19.180000 9.637215
19.200000 9.430875
19.220000 9.266083
19.240000 9.084712
19.260000 8.808720
19.280000 8.587956
19.300000 8.451564
19.320000 8.397245
19.340000 8.453286
19.360000 8.415757
19.380000 8.480859
19.400000 8.459672
19.420000 8.319652
19.440000 8.207317
19.460000 7.920836
19.480000 7.643317
19.500000 7.383387
19.520000 7.056086
19.540000 6.672492
19.560000 6.223222
19.580000 5.742640
19.600000 5.189620
19.620000 4.446559
19.640000 3.588419
19.660000 2.876249
19.680000 2.261110
19.700000 1.599605
19.720000 0.945633
19.740000 0.522662
19.760000 0.278303
19.780000 -0.183654
19.800000 -0.732894
19.820000 -1.209905
19.840000 -1.619167
19.860000 -2.069810
19.880000 -2.663692
19.900000 -3.029334
19.920000 -3.208507
19.940000 -3.421162
19.960000 -3.685840
19.980000 -3.936052
20.000000 -4.219214
20.020000 -4.520161
20.040000 -4.955889
20.060000 -5.492428
20.080000 -5.872522
20.100000 -6.244437
20.120000 -6.610037
20.140000 -6.876507
20.160000 -7.204438
20.180000 -7.471384
20.200000 -7.748007
20.220000 -8.218996
20.240000 -8.688473
20.260000 -9.106011
20.280000 -9.461276
20.300000 -9.851480
20.320000 -10.205530
20.340000 -10.466760
20.360000 -10.683560
20.380000 -11.016420
20.400000 -11.372610
20.420000 -11.813100
20.440000 -12.263730
20.460000 -12.659300
20.480000 -12.909750
20.500000 -12.961080
20.520000 -12.975970
20.540000 -12.858170
20.560000 -12.555990
20.580000 -12.282270
20.600000 -12.073740
20.620000 -11.834730
20.640000 -11.585460
20.660000 -11.429650
20.680000 -11.483390
20.700000 -11.158260
20.720000 -10.467840
20.740000 -9.740139
20.760000 -8.976634
20.780000 -8.230647
20.800000 -7.517413
20.820000 -6.965708
20.840000 -6.577773
20.860000 -6.185917
20.880000 -5.763477
20.900000 -5.318310
20.920000 -4.864797
20.940000 -4.242012
20.960000 -3.463046
20.980000 -2.798391
21.000000 -2.107591
21.020000 -1.524014
21.040000 -1.104894
21.060000 -0.770941
21.080000 -0.438277
21.100000 -0.141840
21.120000 0.223242
21.140000 0.652361
21.160000 1.167475
21.180000 1.679914
21.200000 2.061898
21.220000 2.452844
21.240000 2.769614
21.260000 2.969414
21.280000 3.140885
21.300000 3.361872
21.320000 3.699745
21.340000 4.022537
21.360000 4.376444
21.380000 4.762265
21.400000 5.128355
21.420000 5.331642
21.440000 5.492106
21.460000 5.658186
21.480000 5.723624
21.500000 5.895081
21.520000 6.144901
21.540000 6.426775
21.560000 6.729696
21.580000 7.044393
21.600000 7.308917
21.620000 7.457619
21.640000 7.545280
21.660000 7.603982
21.680000 7.657587
21.700000 7.734115
21.720000 7.881319
21.740000 8.051557
21.760000 8.331961
21.780000 8.488701
21.800000 8.602492
21.820000 8.728620
21.840000 8.660900
21.860000 8.687044
21.880000 8.647205
21.900000 8.676430
21.920000 8.804308
21.940000 8.927398
21.960000 9.155989
21.980000 9.298669
22.000000 9.373041
22.020000 9.508524
22.040000 9.516968
22.060000 9.511815
22.080000 9.586606
22.100000 9.666790
22.120000 9.914495
22.140000 10.149710
22.160000 10.245480
22.180000 10.400020
22.200000 10.341820
22.220000 10.171600
22.240000 9.929269
22.260000 9.649216
22.280000 9.483290
22.300000 9.253186
22.320000 9.156129
22.340000 9.161422
22.360000 9.115939
22.380000 9.085286
22.400000 8.926880
22.420000 8.768642
22.440000 8.572063
22.460000 8.162898
22.480000 7.795716
22.500000 7.510804
22.520000 7.096136
22.540000 6.631980
22.560000 6.118981
22.580000 5.598196
22.600000 4.995211
22.620000 4.174389
22.640000 3.323727
22.660000 2.583775
22.680000 1.895146
22.700000 1.256172
22.720000 0.660791
22.740000 0.200178
22.760000 -0.125890
22.780000 -0.499150
22.800000 -1.050266
22.820000 -1.587982
22.840000 -2.047152
22.860000 -2.575863
22.880000 -3.075013
22.900000 -3.535262
22.920000 -3.849889
22.940000 -3.994180
22.960000 -4.234422
22.980000 -4.542076
23.000000 -4.823726
23.020000 -5.135076
23.040000 -5.498758
23.060000 -6.013774
23.080000 -6.432936
23.100000 -6.726153
23.120000 -7.007915
23.140000 -7.239838
23.160000 -7.527538
23.180000 -7.765315
23.200000 -7.995642
23.220000 -8.379656
23.240000 -8.795626
23.260000 -9.157459
23.280000 -9.490501
23.300000 -9.733222
23.320000 -9.996555
23.340000 -10.265130
23.360000 -10.349860
23.380000 -10.612310
23.400000 -10.939500
23.420000 -11.302760
23.440000 -11.757810
23.460000 -12.074780
23.480000 -12.308860
23.500000 -12.409800
23.520000 -12.376330
23.540000 -12.219460
23.560000 -11.893160
23.580000 -11.653880
23.600000 -11.409630
23.620000 -11.166100
23.640000 -10.886970
23.660000 -10.753210
23.680000 -10.791150
23.700000 -10.684810
23.720000 -10.301130
23.740000 -9.626558
23.760000 -8.581543
23.780000 -7.674937
23.800000 -7.356010
23.820000 -6.757436
23.840000 -6.197078
23.860000 -5.755356
23.880000 -5.490860
23.900000 -5.217276
23.920000 -4.637551
23.940000 -4.115939
23.960000 -3.633019
23.980000 -2.794834
24.000000 -2.070398
24.020000 -1.628269
24.040000 -1.112497
24.060000 -0.658984
24.080000 -0.400566
24.100000 -0.204841
24.120000 0.255519
24.140000 0.730906
24.160000 1.058865
24.180000 1.611787
24.200000 2.189608
24.220000 2.629006
24.240000 2.815405
24.260000 3.054960
24.280000 3.473073
24.300000 3.492089
24.320000 3.653982
24.340000 4.136720
24.360000 4.492616
24.380000 4.756621
24.400000 5.153939
24.420000 5.471661
24.440000 5.610505
24.460000 5.739574
24.480000 5.778839
24.500000 5.986047
24.520000 6.071594
24.540000 6.249170
24.560000 6.667003
24.580000 6.855390
24.600000 7.016149
24.620000 7.265338
24.640000 7.385585
24.660000 7.301033
24.680000 7.284243
24.700000 7.407781
24.720000 7.497598
24.740000 7.526207
24.760000 7.748259
24.780000 8.068782
24.800000 8.112850
24.820000 8.155014
24.840000 8.213212
24.860000 8.215047
24.880000 8.119432
24.900000 8.068264
24.920000 8.273189
24.940000 8.351146
24.960000 8.511442
24.980000 8.763965
25.000000 8.907401
25.020000 9.022551
25.040000 9.032003
25.060000 9.099443
25.080000 9.222519
25.100000 9.169950
25.120000 9.392940
25.140000 9.801950
25.160000 9.897747
25.180000 10.010800
25.200000 10.114530
25.220000 10.089970
25.240000 9.903181
25.260000 9.587517
25.280000 9.445705
25.300000 9.363267
25.320000 9.170679
25.340000 9.152166
25.360000 9.204147
25.380000 9.250344
25.400000 9.124103
25.420000 8.939133
25.440000 8.878484
25.460000 8.472121
25.480000 8.038492
25.500000 7.761212
25.520000 7.316031
25.540000 6.803858
25.560000 6.230518
25.580000 5.764654
25.600000 5.192980
25.620000 4.253172
25.640000 3.389711
25.660000 2.729046
25.680000 1.941581
25.700000 1.138516
25.720000 0.523166
25.740000 0.107070
25.760000 -0.203231
25.780000 -0.725738
25.800000 -1.210689
25.820000 -1.594129
25.840000 -2.086992
25.860000 -2.652238
25.880000 -3.173681
25.900000 -3.497201
25.920000 -3.812234
25.940000 -4.039313
25.960000 -4.122689
25.980000 -4.349712
26.000000 -4.586607
26.020000 -4.802496
26.040000 -5.144935
26.060000 -5.576042
26.080000 -6.042593
26.100000 -6.361337
26.120000 -6.541070
26.140000 -6.846568
26.160000 -7.177663
26.180000 -7.282941
26.200000 -7.479254
26.220000 -7.879484
26.240000 -8.334229
26.260000 -8.705823
26.280000 -8.996309
26.300000 -9.412993
26.320000 -9.787163
26.340000 -9.995015
26.360000 -10.186790
26.380000 -10.482700
26.400000 -10.843770
26.420000 -11.209180
26.440000 -11.657550
26.460000 -12.195600
26.480000 -12.534600
26.500000 -12.626440
26.520000 -12.707800
26.540000 -12.664990
26.560000 -12.405220
26.580000 -12.139180
26.600000 -11.880810
26.620000 -11.740790
26.640000 -11.437000
26.660000 -11.292500
26.680000 -11.446210
26.700000 -11.331990
26.720000 -10.873770
26.740000 -10.142580
26.760000 -9.217702
26.780000 -8.453216
26.800000 -7.764797
26.820000 -7.146562
26.840000 -6.676959
26.860000 -6.200046
26.880000 -5.840104
26.900000 -5.479797
26.920000 -4.968800
26.940000 -4.363001
26.960000 -3.667090
26.980000 -2.840975
27.000000 -2.071280
27.020000 -1.409733
27.040000 -0.830400
27.060000 -0.456818
27.080000 -0.121423
27.100000 0.214433
27.120000 0.533920
27.140000 1.022260
27.160000 1.475311
27.180000 2.008461
27.200000 2.616529
27.220000 3.000361
27.240000 3.304528
27.260000 3.577118
27.280000 3.752314
27.300000 3.892320
27.320000 4.056915
27.340000 4.341562
27.360000 4.724274
27.380000 5.036661
27.400000 5.379757
27.420000 5.640290
27.440000 5.806706
27.460000 5.965126
27.480000 5.927527
27.500000 6.046247
27.520000 6.230966
27.540000 6.366658
27.560000 6.722848
27.580000 6.961199
27.600000 7.215473
27.620000 7.456723
27.640000 7.488510
27.660000 7.541681
27.680000 7.486018
27.700000 7.529820
27.720000 7.632255
27.740000 7.690439
27.760000 7.921186
27.780000 8.130494
27.800000 8.216349
27.820000 8.306475
27.840000 8.256679
27.860000 8.174549
27.880000 8.099687
27.900000 7.986512
27.920000 8.021758
27.940000 8.110372
27.960000 8.257533
27.980000 8.426274
28.000000 8.493392
28.020000 8.633845
28.040000 8.614451
28.060000 8.577846
28.080000 8.664695
28.100000 8.632403
28.120000 8.868234
28.140000 9.157515
28.160000 9.340329
28.180000 9.631837
28.200000 9.739355
28.220000 9.693466
28.240000 9.619949
28.260000 9.384216
28.280000 9.209594
28.300000 9.095494
28.320000 8.999949
28.340000 9.028404
28.360000 9.072165
28.380000 9.168312
28.400000 9.130041
28.420000 9.023335
28.440000 8.899503
28.460000 8.629406
28.480000 8.300411
28.500000 7.953212
28.520000 7.657069
28.540000 7.268615
28.560000 6.715972
28.580000 6.233122
28.600000 5.701695
28.620000 4.912535
28.640000 4.042702
28.660000 3.162646
28.680000 2.352033
28.700000 1.655324
28.720000 0.887085
28.740000 0.297235
28.760000 -0.062189
28.780000 -0.491014
28.800000 -1.007500
28.820000 -1.588276
28.840000 -2.093461
28.860000 -2.613770
28.880000 -3.128492
28.900000 -3.633047
28.920000 -4.007959
28.940000 -4.135418
28.960000 -4.304859
28.980000 -4.534710
29.000000 -4.761439
29.020000 -4.994665
29.040000 -5.291060
29.060000 -5.719283
29.080000 -6.223642
29.100000 -6.512181
29.120000 -6.732917
29.140000 -7.025377
29.160000 -7.267243
29.180000 -7.513520
29.200000 -7.695634
29.220000 -8.003456
29.240000 -8.493826
29.260000 -8.914291
29.280000 -9.237783
29.300000 -9.567128
29.320000 -9.928219
29.340000 -10.213020
29.360000 -10.395050
29.380000 -10.624450
29.400000 -10.966650
29.420000 -11.422850
29.440000 -11.901310
29.460000 -12.341780
29.480000 -12.739550
29.500000 -12.889800
29.520000 -12.874220
29.540000 -12.797700
29.560000 -12.508040
29.580000 -12.192250
29.600000 -11.948090
29.620000 -11.652710
29.640000 -11.383850
29.660000 -11.306190
29.680000 -11.337200
29.700000 -11.290970
29.720000 -10.732470
29.740000 -9.761719
29.760000 -8.947339
29.780000 -8.123185
29.800000 -7.355646
29.820000 -6.732832
29.840000 -6.251103
29.860000 -5.910317
29.880000 -5.503379
29.900000 -5.130217
29.920000 -4.775330
29.940000 -4.206345
29.960000 -3.432547
29.980000 -2.723767
30.000000 -2.034661
30.020000 -1.387341
30.040000 -0.915302
30.060000 -0.673730
30.080000 -0.430519
30.100000 -0.091302
30.120000 0.159078
30.140000 0.565064
30.160000 1.081354
30.180000 1.657859
30.200000 2.193473
30.220000 2.499587
30.240000 2.873239
30.260000 3.131419
30.280000 3.166441
30.300000 3.381281
30.320000 3.644250
30.340000 3.940687
30.360000 4.359374
30.380000 4.767684
30.400000 5.180111
30.420000 5.420171
30.440000 5.604259
30.460000 5.778825
30.480000 5.810039
30.500000 5.931868
30.520000 6.182038
30.540000 6.506300
30.560000 6.841471
30.580000 7.165452
30.600000 7.572516
30.620000 7.761142
30.640000 7.813892
30.660000 7.913652
30.680000 7.903570
30.700000 7.973447
30.720000 8.093021
30.740000 8.248641
30.760000 8.589567
30.780000 8.765603
30.800000 8.862016
30.820000 9.044410
30.840000 8.913451
30.860000 8.783583
30.880000 8.747735
30.900000 8.624645
30.920000 8.647807
30.940000 8.746026
30.960000 8.901436
30.980000 9.049115
31.000000 9.061774
31.020000 9.119174
31.040000 9.050628
31.060000 8.925634
31.080000 8.841053
31.100000 8.808818
31.120000 8.988285
31.140000 9.114735
31.160000 9.278756
31.180000 9.490487
31.200000 9.456459
31.220000 9.303542
31.240000 9.092148
31.260000 8.821281
31.280000 8.631269
31.300000 8.387218
31.320000 8.304640
31.340000 8.390089
31.360000 8.414945
31.380000 8.509720
31.400000 8.469614
31.420000 8.388114
31.440000 8.287136
31.460000 8.027738
31.480000 7.772106
31.500000 7.512400
31.520000 7.316465
31.540000 7.102675
31.560000 6.706758
31.580000 6.344141
31.600000 5.848436
31.620000 5.221281
31.640000 4.412041
31.660000 3.514943
31.680000 2.771140
31.700000 2.126411
31.720000 1.400561
31.740000 0.842905
31.760000 0.386199
31.780000 0.022125
31.800000 -0.467082
31.820000 -1.188242
31.840000 -1.726307
31.860000 -2.306550
31.880000 -2.904396
31.900000 -3.397651
31.920000 -3.846543
31.940000 -4.051902
31.960000 -4.213473
31.980000 -4.494464
32.000000 -4.762503
32.020000 -5.085504
32.040000 -5.477613
32.060000 -5.930650
32.080000 -6.445217
32.100000 -6.836527
32.120000 -7.115544
32.140000 -7.358265
32.160000 -7.572572
32.180000 -7.883951
32.200000 -8.079466
32.220000 -8.376548
32.240000 -8.827022
32.260000 -9.249798
32.280000 -9.689013
32.300000 -9.934058
32.320000 -10.213100
32.340000 -10.558760
32.360000 -10.719600
32.380000 -10.910290
32.400000 -11.238780
32.420000 -11.656930
32.440000 -12.153770
32.460000 -12.504210
32.480000 -12.738190
32.500000 -12.890070
32.520000 -12.886330
32.540000 -12.714520
32.560000 -12.368660
32.580000 -12.038820
32.600000 -11.802680
32.620000 -11.543450
32.640000 -11.222070
32.660000 -11.068880
32.680000 -11.200200
32.700000 -11.029680
32.720000 -10.354860
32.740000 -9.502250
32.760000 -8.690363
32.780000 -7.931409
32.800000 -7.192633
32.820000 -6.621954
32.840000 -6.264672
32.860000 -5.895053
32.880000 -5.498282
32.900000 -5.182632
32.920000 -4.781617
32.940000 -4.177022
32.960000 -3.495702
32.980000 -2.795688
33.000000 -2.070118
33.020000 -1.496876
33.040000 -1.085359
33.060000 -0.795447
33.080000 -0.471899
33.100000 -0.160563
33.120000 0.082662
33.140000 0.550962
33.160000 1.131766
33.180000 1.649429
33.200000 2.127391
33.220000 2.565417
33.240000 2.947723
33.260000 3.146290
33.280000 3.313084
33.300000 3.569374
33.320000 3.861680
33.340000 4.180439
33.360000 4.578401
33.380000 4.999216
33.400000 5.360671
33.420000 5.560415
33.440000 5.735317
33.460000 5.871499
33.480000 5.839992
33.500000 6.012849
33.520000 6.218881
33.540000 6.416342
33.560000 6.753347
33.580000 7.032014
33.600000 7.305836
33.620000 7.448587
33.640000 7.438350
33.660000 7.544916
33.680000 7.545126
33.700000 7.500371
33.720000 7.689430
33.740000 7.866769
33.760000 8.084423
33.780000 8.291617
33.800000 8.421190
33.820000 8.538090
33.840000 8.496500
33.860000 8.414945
33.880000 8.383157
33.900000 8.394472
33.920000 8.463775
33.940000 8.601204
33.960000 8.834920
33.980000 8.955433
34.000000 9.089319
34.020000 9.205407
34.040000 9.134340
34.060000 9.117802
34.080000 9.143204
34.100000 9.188883
34.120000 9.388179
34.140000 9.557199
34.160000 9.739481
34.180000 9.873788
34.200000 9.787975
34.220000 9.606547
34.240000 9.388963
34.260000 9.106683
34.280000 8.831867
34.300000 8.593824
34.320000 8.552318
34.340000 8.541815
34.360000 8.534338
34.380000 8.547011
34.400000 8.459546
34.420000 8.354534
34.440000 8.182699
34.460000 7.841843
34.480000 7.585918
34.500000 7.330090
34.520000 7.084485
34.540000 6.801295
34.560000 6.390786
34.580000 6.046822
34.600000 5.575874
34.620000 4.872023
34.640000 4.092680
34.660000 3.351132
34.680000 2.687582
34.700000 2.079514
34.720000 1.429114
34.740000 0.996914
34.760000 0.689834
34.780000 0.276987
34.800000 -0.246781
34.820000 -0.819337
34.840000 -1.346844
34.860000 -1.938654
34.880000 -2.559661
34.900000 -3.046908
34.920000 -3.424467
34.940000 -3.691609
34.960000 -3.964605
34.980000 -4.251870
35.000000 -4.571637
35.020000 -4.973268
35.040000 -5.433488
35.060000 -5.948882
35.080000 -6.430178
35.100000 -6.860221
35.120000 -7.145344
35.140000 -7.424221
35.160000 -7.698141
35.180000 -7.931143
35.200000 -8.234974
35.220000 -8.618400
35.240000 -9.052056
35.260000 -9.485404
35.280000 -9.843372
35.300000 -10.155730
35.320000 -10.491180
35.340000 -10.652150
35.360000 -10.838550
35.380000 -11.101940
35.400000 -11.392720
35.420000 -11.835270
35.440000 -12.316590
35.460000 -12.733110
35.480000 -12.973310
35.500000 -12.979850
35.520000 -13.038790
35.540000 -12.810840
35.560000 -12.434880
35.580000 -12.128460
35.600000 -11.820720
35.620000 -11.589620
35.640000 -11.319720
35.660000 -11.178590
35.680000 -11.286310
35.700000 -11.004080
35.720000 -10.298610
35.740000 -9.459792
35.760000 -8.436776
35.780000 -7.691027
35.800000 -7.039534
35.820000 -6.431130
35.840000 -5.976931
35.860000 -5.579011
35.880000 -5.292838
35.900000 -4.906107
35.920000 -4.397309
35.940000 -3.836012
35.960000 -3.096186
35.980000 -2.346754
36.000000 -1.699701
36.020000 -1.179293
36.040000 -0.806132
36.060000 -0.520029
36.080000 -0.338027
36.100000 -0.131926
36.120000 0.209995
36.140000 0.627547
36.160000 1.040016
36.180000 1.589998
36.200000 2.045920
36.220000 2.358559
36.240000 2.589264
36.260000 2.818472
36.280000 2.939979
36.300000 3.062242
36.320000 3.345768
36.340000 3.712979
36.360000 4.099233
36.380000 4.416508
36.400000 4.800998
36.420000 5.070017
36.440000 5.165954
36.460000 5.279521
36.480000 5.385079
36.500000 5.555990
36.520000 5.765634
36.540000 6.125478
36.560000 6.525779
36.580000 6.836499
36.600000 7.188180
36.620000 7.408117
36.640000 7.518967
36.660000 7.600509
36.680000 7.659295
36.700000 7.832055
36.720000 8.028326
36.740000 8.192977
36.760000 8.578392
36.780000 8.840633
36.800000 8.921125
36.820000 9.057307
36.840000 9.039845
36.860000 8.971859
36.880000 8.884926
36.900000 8.914025
36.920000 9.005929
36.940000 9.097077
36.960000 9.280143
36.980000 9.381163
37.000000 9.480391
37.020000 9.438297
37.040000 9.332655
37.060000 9.322909
37.080000 9.218178
37.100000 9.192482
37.120000 9.406145
37.140000 9.545367
37.160000 9.637271
37.180000 9.720451
37.200000 9.595835
37.220000 9.405753
37.240000 9.101572
37.260000 8.794366
37.280000 8.602870
37.300000 8.346608
37.320000 8.276550
37.340000 8.334005
37.360000 8.328628
37.380000 8.339047
37.400000 8.228532
37.420000 8.136614
37.440000 7.970954
37.460000 7.612356
37.480000 7.334039
37.500000 7.166279
37.520000 6.940418
37.540000 6.607992
37.560000 6.233626
37.580000 5.932890
37.600000 5.466158
37.620000 4.747351
37.640000 3.950896
37.660000 3.252380
37.680000 2.650025
37.700000 2.037378
37.720000 1.419521
37.740000 1.010903
37.760000 0.772916
37.780000 0.380765
37.800000 -0.138661
37.820000 -0.713808
37.840000 -1.196938
37.860000 -1.745057
37.880000 -2.358727
37.900000 -2.867665
37.920000 -3.215999
37.940000 -3.404428
37.960000 -3.701524
37.980000 -4.053820
38.000000 -4.411873
38.020000 -4.820911
38.040000 -5.274914
38.060000 -5.926855
38.080000 -6.461377
38.100000 -6.871984
38.120000 -7.225611
38.140000 -7.494742
38.160000 -7.852150
38.180000 -8.114405
38.200000 -8.361228
38.220000 -8.805555
38.240000 -9.289721
38.260000 -9.702974
38.280000 -10.074650
38.300000 -10.361920
38.320000 -10.674530
38.340000 -10.905150
38.360000 -11.016150
38.380000 -11.237490
38.400000 -11.544110
38.420000 -11.955680
38.440000 -12.400980
38.460000 -12.654810
38.480000 -12.786290
38.500000 -12.870410
38.520000 -12.852770
38.540000 -12.531720
38.560000 -12.128020
38.580000 -11.874880
38.600000 -11.651920
38.620000 -11.328600
38.640000 -11.084970
38.660000 -11.030100
38.680000 -11.056760
38.700000 -10.738690
38.720000 -10.091500
38.740000 -9.286276
38.760000 -8.392525
38.780000 -7.661046
38.800000 -7.090829
38.820000 -6.552539
38.840000 -6.126515
38.860000 -5.832136
38.880000 -5.553021
38.900000 -5.149472
38.920000 -4.658332
38.940000 -4.096615
38.960000 -3.404890
38.980000 -2.652476
39.000000 -1.977037
39.020000 -1.556026
39.040000 -1.122524
39.060000 -0.781976
39.080000 -0.553581
39.100000 -0.264145
39.120000 0.142386
39.140000 0.643483
39.160000 1.098214
39.180000 1.671792
39.200000 2.161686
39.220000 2.494966
39.240000 2.772092
39.260000 2.989831
39.280000 3.186228
39.300000 3.385874
39.320000 3.649403
39.340000 4.083214
39.360000 4.430679
39.380000 4.741960
39.400000 5.119981
39.420000 5.316224
39.440000 5.395259
39.460000 5.508756
39.480000 5.565932
39.500000 5.759248
39.520000 5.955184
39.540000 6.242785
39.560000 6.635929
39.580000 6.877627
39.600000 7.167973
39.620000 7.317851
39.640000 7.393147
39.660000 7.463962
39.680000 7.507317
39.700000 7.677486
39.720000 7.836760
39.740000 8.050983
39.760000 8.410436
39.780000 8.617994
39.800000 8.724923
39.820000 8.812654
39.840000 8.834094
39.860000 8.798973
39.880000 8.684706
39.900000 8.764861
39.920000 8.918870
39.940000 8.979729
39.960000 9.141159
39.980000 9.279653
40.000000 9.291065
40.020000 9.274990
40.040000 9.139423
40.060000 9.101096
40.080000 9.061760
40.100000 9.035238
40.120000 9.217226
40.140000 9.403022
40.160000 9.473487
40.180000 9.534948
40.200000 9.460002
40.220000 9.283084
40.240000 9.012833
40.260000 8.758573
40.280000 8.598571
40.300000 8.451228
40.320000 8.397595
40.340000 8.451368
40.360000 8.535444
40.380000 8.518276
40.400000 8.409820
40.420000 8.344046
40.440000 8.203032
40.460000 7.908429
40.480000 7.660780
40.500000 7.514682
40.520000 7.340579
40.540000 7.014020
40.560000 6.581414
40.580000 6.242995
40.600000 5.731018
40.620000 4.941284
40.640000 4.097511
40.660000 3.324063
40.680000 2.652938
40.700000 1.960345
40.720000 1.318795
40.740000 0.831408
40.760000 0.444789
40.780000 0.039574
40.800000 -0.556424
40.820000 -1.140042
40.840000 -1.679102
40.860000 -2.249417
40.880000 -2.758621
40.900000 -3.227090
40.920000 -3.600588
40.940000 -3.777380
40.960000 -3.984686
40.980000 -4.325458
41.000000 -4.629261
41.020000 -5.001484
41.040000 -5.378441
41.060000 -5.859443
41.080000 -6.379205
41.100000 -6.714208
41.120000 -6.959351
41.140000 -7.222222
41.160000 -7.525297
41.180000 -7.808207
41.200000 -8.089759
41.220000 -8.472863
41.240000 -8.940449
41.260000 -9.398107
41.280000 -9.725660
41.300000 -9.977679
41.320000 -10.281800
41.340000 -10.511140
41.360000 -10.691580
41.380000 -10.945490
41.400000 -11.275260
41.420000 -11.704040
41.440000 -12.200770
41.460000 -12.646160
41.480000 -12.792780
41.500000 -12.841070
41.520000 -12.862850
41.540000 -12.612230
41.560000 -12.238800
41.580000 -11.884330
41.600000 -11.667160
41.620000 -11.438370
41.640000 -11.067000
41.660000 -10.958630
41.680000 -11.117550
41.700000 -10.937020
41.720000 -10.359350
41.740000 -9.465379
41.760000 -8.561672
41.780000 -7.906273
41.800000 -7.245832
41.820000 -6.661065
41.840000 -6.252167
41.860000 -5.907978
41.880000 -5.624438
41.900000 -5.209392
41.920000 -4.765920
41.940000 -4.262415
41.960000 -3.570956
41.980000 -2.805448
42.000000 -2.126705
42.020000 -1.593163
42.040000 -1.096184
42.060000 -0.810655
42.080000 -0.521429
42.100000 -0.199828
42.120000 0.155521
42.140000 0.603825
42.160000 1.058711
42.180000 1.679144
42.200000 2.211454
42.220000 2.524765
42.240000 2.867063
42.260000 3.157129
42.280000 3.328040
42.300000 3.472219
42.320000 3.784130
42.340000 4.170567
42.360000 4.514965
42.380000 4.866730
42.400000 5.259566
42.420000 5.506208
42.440000 5.663115
42.460000 5.747654
42.480000 5.817614
42.500000 6.013970
42.520000 6.137297
42.540000 6.467203
42.560000 6.775445
42.580000 7.002775
42.600000 7.344724
42.620000 7.501393
42.640000 7.507835
42.660000 7.566565
42.680000 7.577852
42.700000 7.653638
42.720000 7.751045
42.740000 7.873953
42.760000 8.194350
42.780000 8.365597
42.800000 8.435978
42.820000 8.517758
42.840000 8.526818
42.860000 8.444702
42.880000 8.347561
42.900000 8.357811
42.920000 8.440795
42.940000 8.549993
42.960000 8.736364
42.980000 8.864229
43.000000 8.981955
43.020000 9.042940
43.040000 9.003310
43.060000 9.016838
43.080000 8.990917
43.100000 9.029889
43.120000 9.303710
43.140000 9.503328
43.160000 9.616658
43.180000 9.803715
43.200000 9.804345
43.220000 9.674226
43.240000 9.452398
43.260000 9.169432
43.280000 9.049115
43.300000 8.887068
43.320000 8.752916
43.340000 8.794674
43.360000 8.877728
43.380000 8.894224
43.400000 8.747483
43.420000 8.676836
43.440000 8.529912
43.460000 8.221152
43.480000 7.925359
43.500000 7.612594
43.520000 7.386566
43.540000 6.999247
43.560000 6.510375
43.580000 6.075809
43.600000 5.503197
43.620000 4.724736
43.640000 3.896325
43.660000 3.054148
43.680000 2.300333
43.700000 1.671022
43.720000 1.001087
43.740000 0.502805
43.760000 0.152006
43.780000 -0.256654
43.800000 -0.699370
43.820000 -1.299540
43.840000 -1.840462
43.860000 -2.318565
43.880000 -2.863100
43.900000 -3.312034
43.920000 -3.676318
43.940000 -3.832889
43.960000 -3.997037
43.980000 -4.243734
44.000000 -4.549260
44.020000 -4.851564
44.040000 -5.187659
44.060000 -5.717406
44.080000 -6.208406
44.100000 -6.573278
44.120000 -6.838320
44.140000 -7.117015
44.160000 -7.438826
44.180000 -7.683255
44.200000 -7.939517
44.220000 -8.291561
44.240000 -8.777422
44.260000 -9.271377
44.280000 -9.611182
44.300000 -9.945373
44.320000 -10.300160
44.340000 -10.598420
44.360000 -10.804230
44.380000 -11.058070
44.400000 -11.395930
44.420000 -11.885230
44.440000 -12.384760
44.460000 -12.801120
44.480000 -13.031140
44.500000 -13.083390
44.520000 -13.145210
44.540000 -12.936210
44.560000 -12.534430
44.580000 -12.215530
44.600000 -11.942880
44.620000 -11.704870
44.640000 -11.345460
44.660000 -11.148780
44.680000 -11.255910
44.700000 -11.075980
44.720000 -10.320100
44.740000 -9.378180
44.760000 -8.608289
44.780000 -7.916369
44.800000 -7.084233
44.820000 -6.432068
44.840000 -6.062225
44.860000 -5.760159
44.880000 -5.297361
44.900000 -4.908908
44.920000 -4.534738
44.940000 -3.892432
44.960000 -3.157801
44.980000 -2.444988
45.000000 -1.761217
45.020000 -1.173916
45.040000 -0.695659
45.060000 -0.491042
45.080000 -0.231126
45.100000 0.168755
45.120000 0.371509
45.140000 0.764038
45.160000 1.327351
45.180000 1.848430
45.200000 2.273012
45.220000 2.548991
45.240000 2.962160
45.260000 3.134682
45.280000 3.157255
45.300000 3.427870
45.320000 3.659598
45.340000 3.979827
45.360000 4.320151
45.380000 4.674114
45.400000 5.052709
45.420000 5.175784
45.440000 5.354243
45.460000 5.480175
45.480000 5.468749
45.500000 5.627757
45.520000 5.858238
45.540000 6.144397
45.560000 6.408753
45.580000 6.697726
45.600000 7.057837
45.620000 7.186514
45.640000 7.178000
45.660000 7.360099
45.680000 7.420972
45.700000 7.457367
45.720000 7.641469
45.740000 7.922390
45.760000 8.242311
45.780000 8.405058
45.800000 8.590337
45.820000 8.789031
45.840000 8.766821
45.860000 8.694732
45.880000 8.712096
45.900000 8.758447
45.920000 8.812010
45.940000 8.955811
45.960000 9.178072
45.980000 9.256379
46.000000 9.334028
46.020000 9.386456
46.040000 9.315879
46.060000 9.229801
46.080000 9.150444
46.100000 9.211204
46.120000 9.409940
46.140000 9.435874
46.160000 9.588385
46.180000 9.741078
46.200000 9.627734
46.220000 9.422963
46.240000 9.202312
46.260000 8.984532
46.280000 8.733129
46.300000 8.523667
46.320000 8.489317
46.340000 8.537950
46.360000 8.534184
46.380000 8.543510
46.400000 8.479822
46.420000 8.384796
46.440000 8.166721
46.460000 7.938760
46.480000 7.713908
46.500000 7.436222
46.520000 7.255368
46.540000 6.977429
46.560000 6.601397
46.580000 6.207790
46.600000 5.643945
46.620000 5.023568
46.640000 4.231117
46.660000 3.364883
46.680000 2.699191
46.700000 2.047026
46.720000 1.404818
46.740000 0.883388
46.760000 0.449158
46.780000 0.064486
46.800000 -0.462363
46.820000 -1.129105
46.840000 -1.653980
46.860000 -2.231492
46.880000 -2.801822
46.900000 -3.281171
46.920000 -3.681961
46.940000 -3.864523
46.960000 -4.156465
46.980000 -4.423145
47.000000 -4.676284
47.020000 -5.065592
47.040000 -5.437745
47.060000 -5.896201
47.080000 -6.367415
47.100000 -6.689310
47.120000 -7.025755
47.140000 -7.254346
47.160000 -7.511420
47.180000 -7.816427
47.200000 -8.079522
47.220000 -8.430251
47.240000 -8.871147
47.260000 -9.295925
47.280000 -9.670879
47.300000 -9.963507
47.320000 -10.244340
47.340000 -10.571790
47.360000 -10.757570
47.380000 -10.972480
47.400000 -11.338960
47.420000 -11.756480
47.440000 -12.272620
47.460000 -12.702650
47.480000 -12.885160
47.500000 -12.970060
47.520000 -12.900420
47.540000 -12.729440
47.560000 -12.449120
47.580000 -11.991680
47.600000 -11.729990
47.620000 -11.504940
47.640000 -11.167810
47.660000 -11.022530
47.680000 -11.121870
47.700000 -10.979070
47.720000 -10.366960
47.740000 -9.469272
47.760000 -8.604004
47.780000 -7.919142
47.800000 -7.243073
47.820000 -6.644331
47.840000 -6.261717
47.860000 -5.926687
47.880000 -5.523880
47.900000 -5.192182
47.920000 -4.809778
47.940000 -4.168886
47.960000 -3.520684
47.980000 -2.779570
48.000000 -2.064054
48.020000 -1.519449
48.040000 -1.024346
48.060000 -0.782438
48.080000 -0.486071
48.100000 -0.143072
48.120000 0.133424
48.140000 0.594849
48.160000 1.134973
48.180000 1.730102
48.200000 2.211370
48.220000 2.615661
48.240000 2.988935
48.260000 3.194504
48.280000 3.363889
48.300000 3.526258
48.320000 3.800850
48.340000 4.164685
48.360000 4.492462
48.380000 4.909622
48.400000 5.263543
48.420000 5.433432
48.440000 5.635529
48.460000 5.691640
48.480000 5.677889
48.500000 5.820289
48.520000 5.973780
48.540000 6.221556
48.560000 6.496330
48.580000 6.757716
48.600000 7.061618
48.620000 7.171236
48.640000 7.200741
48.660000 7.283277
48.680000 7.278474
48.700000 7.345480
48.720000 7.477532
48.740000 7.706333
48.760000 7.995040
48.780000 8.217917
48.800000 8.412116
48.820000 8.545666
48.840000 8.560622
48.860000 8.512016
48.880000 8.496542
48.900000 8.563381
48.920000 8.624589
48.940000 8.809476
48.960000 9.052896
48.980000 9.196991
49.000000 9.350356
49.020000 9.413455
49.040000 9.410920
49.060000 9.359668
49.080000 9.323385
49.100000 9.399424
49.120000 9.551794
49.140000 9.722901
49.160000 9.897551
49.180000 10.019460
49.200000 10.007410
49.220000 9.808574
49.240000 9.553278
49.260000 9.298977
49.280000 9.022397
49.300000 8.780223
49.320000 8.705823
49.340000 8.680491
49.360000 8.700165
49.380000 8.699647
49.400000 8.577496
49.420000 8.483449
49.440000 8.260264
49.460000 7.970394
49.480000 7.654758
49.500000 7.372996
49.520000 7.125137
49.540000 6.789252
49.560000 6.369991
49.580000 5.984829
49.600000 5.478719
49.620000 4.770485
49.640000 3.986576
49.660000 3.176160
49.680000 2.496772
49.700000 1.849453
49.720000 1.206446
49.740000 0.761041
49.760000 0.363864
49.780000 -0.011483
49.800000 -0.495411
49.820000 -1.087627
49.840000 -1.627891
49.860000 -2.217671
49.880000 -2.760526
49.900000 -3.247521
49.920000 -3.612812
49.940000 -3.847593
49.960000 -4.022593
49.980000 -4.245541
50.000000 -4.557354
50.020000 -4.878997
50.040000 -5.283274
50.060000 -5.780464
50.080000 -6.253987
50.100000 -6.647090
50.120000 -6.943919
50.140000 -7.210109
50.160000 -7.496310
50.180000 -7.706851
50.200000 -7.962636
50.220000 -8.377752
50.240000 -8.826364
50.260000 -9.251576
50.280000 -9.676158
50.300000 -10.035570
50.320000 -10.403600
50.340000 -10.651900
50.360000 -10.860320
50.380000 -11.144270
50.400000 -11.480870
50.420000 -11.892930
50.440000 -12.422960
50.460000 -12.807510
50.480000 -12.990820
50.500000 -13.094730
50.520000 -13.103500
50.540000 -12.886600
50.560000 -12.494620
50.580000 -12.205120
50.600000 -11.955890
50.620000 -11.603050
50.640000 -11.297790
50.660000 -11.298900
50.680000 -11.353050
50.700000 -11.048920
50.720000 -10.342540
50.740000 -9.438997
50.760000 -8.615921
50.780000 -7.831845
50.800000 -7.176431
50.820000 -6.590964
50.840000 -6.172824
50.860000 -5.887547
50.880000 -5.500564
50.900000 -5.151726
50.920000 -4.675010
50.940000 -4.072543
50.960000 -3.373761
50.980000 -2.562686
51.000000 -1.918279
51.020000 -1.378449
51.040000 -0.956822
51.060000 -0.691332
51.080000 -0.414962
51.100000 -0.120527
51.120000 0.229459
51.140000 0.724156
51.160000 1.260233
51.180000 1.884755
51.200000 2.373529
51.220000 2.695242
51.240000 3.077422
51.260000 3.270038
51.280000 3.390173
51.300000 3.575409
51.320000 3.881411
51.340000 4.261266
51.360000 4.610398
51.380000 5.018960
51.400000 5.325830
51.420000 5.510563
51.440000 5.634829
51.460000 5.630151
51.480000 5.653663
51.500000 5.767973
51.520000 5.922934
51.540000 6.216136
51.560000 6.468505
51.580000 6.753698
51.600000 7.056310
51.620000 7.149867
51.640000 7.133987
51.660000 7.183937
51.680000 7.220906
51.700000 7.319125
51.720000 7.433449
51.740000 7.701487
51.760000 8.064637
51.780000 8.305509
51.800000 8.445934
51.820000 8.584540
51.840000 8.607897
51.860000 8.566251
51.880000 8.548047
51.900000 8.615347
51.920000 8.733395
51.940000 8.961538
51.960000 9.150276
51.980000 9.301050
52.000000 9.443380
52.020000 9.443996
52.040000 9.410948
52.060000 9.319170
52.080000 9.252276
52.100000 9.342570
52.120000 9.493806
52.140000 9.660222
52.160000 9.789417
52.180000 9.894695
52.200000 9.855793
52.220000 9.572785
52.240000 9.287901
52.260000 9.039579
52.280000 8.806689
52.300000 8.574415
52.320000 8.487370
52.340000 8.553606
52.360000 8.604844
52.380000 8.554936
52.400000 8.458327
52.420000 8.337800
52.440000 8.153852
52.460000 7.856561
52.480000 7.491227
52.500000 7.316563
52.520000 7.126341
52.540000 6.781242
52.560000 6.436255
52.580000 6.019753
52.600000 5.500886
52.620000 4.820295
52.640000 3.963303
52.660000 3.185570
52.680000 2.531361
52.700000 1.910535
52.720000 1.376027
52.740000 0.865632
52.760000 0.508980
52.780000 0.208020
52.800000 -0.352423
52.820000 -0.986453
52.840000 -1.555984
52.860000 -2.155314
52.880000 -2.663328
52.900000 -3.198719
52.920000 -3.588601
52.940000 -3.755353
52.960000 -3.946345
52.980000 -4.269766
53.000000 -4.603467
53.020000 -4.987411
53.040000 -5.385793
53.060000 -5.896061
53.080000 -6.404930
53.100000 -6.782530
53.120000 -7.027281
53.140000 -7.236043
53.160000 -7.529974
53.180000 -7.801303
53.200000 -8.053336
53.220000 -8.440991
53.240000 -8.891283
53.260000 -9.372873
53.280000 -9.762097
53.300000 -10.042020
53.320000 -10.330980
53.340000 -10.582930
53.360000 -10.793740
53.380000 -11.001310
53.400000 -11.352810
53.420000 -11.792910
53.440000 -12.374590
53.460000 -12.780870
53.480000 -12.908910
53.500000 -13.014270
53.520000 -13.008760
53.540000 -12.728930
53.560000 -12.325660
53.580000 -12.027280
53.600000 -11.795040
53.620000 -11.521310
53.640000 -11.244030
53.660000 -11.269710
53.680000 -11.373580
53.700000 -11.010650
53.720000 -10.312950
53.740000 -9.448169
53.760000 -8.523107
53.780000 -7.797144
53.800000 -7.128652
53.820000 -6.631980
53.840000 -6.207314
53.860000 -5.888556
53.880000 -5.588631
53.900000 -5.199240
53.920000 -4.680149
53.940000 -4.043080
53.960000 -3.346538
53.980000 -2.527019
54.000000 -1.839454
54.020000 -1.358733
54.040000 -0.998356
54.060000 -0.684653
54.080000 -0.443080
54.100000 -0.176947
54.120000 0.223060
54.140000 0.715096
54.160000 1.260961
54.180000 1.846680
54.200000 2.307097
54.220000 2.674237
54.240000 2.952750
54.260000 3.135592
54.280000 3.293648
54.300000 3.465021
54.320000 3.744612
54.340000 4.160694
54.360000 4.534066
54.380000 4.860106
54.400000 5.206578
54.420000 5.410187
54.440000 5.497736
54.460000 5.497680
54.480000 5.570595
54.500000 5.768519
54.520000 5.948756
54.540000 6.254800
54.560000 6.603623
54.580000 6.899178
54.600000 7.158353
54.620000 7.268265
54.640000 7.327822
54.660000 7.360701
54.680000 7.387476
54.700000 7.516475
54.720000 7.660233
54.740000 7.899859
54.760000 8.226221
54.780000 8.461366
54.800000 8.556883
54.820000 8.646631
54.840000 8.633103
54.860000 8.590589
54.880000 8.523359
54.900000 8.564067
54.920000 8.719518
54.940000 8.896577
54.960000 9.042086
54.980000 9.221637
55.000000 9.306077
55.020000 9.280437
55.040000 9.226048
55.060000 9.157753
55.080000 9.159392
55.100000 9.203432
55.120000 9.395265
55.140000 9.639175
55.160000 9.786210
55.180000 9.870763
55.200000 9.841678
55.220000 9.648641
55.240000 9.356895
55.260000 9.096545
55.280000 8.901240
55.300000 8.731015
55.320000 8.645482
55.340000 8.696931
55.360000 8.777394
55.380000 8.725469
55.400000 8.590631
55.420000 8.469474
55.440000 8.311880
55.460000 7.946224
55.480000 7.607553
55.500000 7.423997
55.520000 7.188656
55.540000 6.796786
55.560000 6.355596
55.580000 5.994743
55.600000 5.455137
55.620000 4.652044
55.640000 3.818284
55.660000 3.083989
55.680000 2.442509
55.700000 1.805412
55.720000 1.225183
55.740000 0.807686
55.760000 0.466158
55.780000 0.066796
55.800000 -0.467923
55.820000 -1.077111
55.840000 -1.631308
55.860000 -2.141899
55.880000 -2.701753
55.900000 -3.176944
55.920000 -3.527196
55.940000 -3.742946
55.960000 -3.872631
55.980000 -4.259208
56.000000 -4.632608
56.020000 -4.947011
56.040000 -5.404655
56.060000 -5.901341
56.080000 -6.443215
56.100000 -6.774324
56.120000 -6.973550
56.140000 -7.320428
56.160000 -7.628446
56.180000 -7.878490
56.200000 -8.167491
56.220000 -8.551716
56.240000 -9.065205
56.260000 -9.470351
56.280000 -9.778803
56.300000 -10.126690
56.320000 -10.365070
56.340000 -10.608980
56.360000 -10.803490
56.380000 -11.028010
56.400000 -11.421100
56.420000 -11.775490
56.440000 -12.304900
56.460000 -12.647600
56.480000 -12.724550
56.500000 -12.836400
56.520000 -12.783380
56.540000 -12.528480
56.560000 -12.169840
56.580000 -11.862220
56.600000 -11.689340
56.620000 -11.407590
56.640000 -11.163080
56.660000 -11.097600
56.680000 -11.119050
56.700000 -10.812630
56.720000 -10.178980
56.740000 -9.448911
56.760000 -8.520558
56.780000 -7.840303
56.800000 -7.313790
56.820000 -6.752325
56.840000 -6.361351
56.860000 -6.056372
56.880000 -5.687369
56.900000 -5.337859
56.920000 -4.758666
56.940000 -4.191782
56.960000 -3.569234
56.980000 -2.711556
57.000000 -2.113262
57.020000 -1.618145
57.040000 -1.119009
57.060000 -0.798570
57.080000 -0.492862
57.100000 -0.166178
57.120000 0.262381
57.140000 0.756280
57.160000 1.233416
57.180000 1.817063
57.200000 2.342959
57.220000 2.696516
57.240000 2.990363
57.260000 3.277558
57.280000 3.472541
57.300000 3.657483
57.320000 3.941037
57.340000 4.344012
57.360000 4.637243
57.380000 4.958032
57.400000 5.298426
57.420000 5.473300
57.440000 5.591502
57.460000 5.635669
57.480000 5.730444
57.500000 5.877787
57.520000 6.011407
57.540000 6.301753
57.560000 6.601691
57.580000 6.835225
57.600000 7.079318
57.620000 7.253156
57.640000 7.314546
57.660000 7.356528
57.680000 7.433897
57.700000 7.553570
57.720000 7.709385
57.740000 7.881010
57.760000 8.207597
57.780000 8.433765
57.800000 8.517127
57.820000 8.614913
57.840000 8.657861
57.860000 8.645440
57.880000 8.585506
57.900000 8.644712
57.920000 8.753252
57.940000 8.881691
57.960000 9.008856
57.980000 9.137785
58.000000 9.223009
58.020000 9.240233
58.040000 9.140977
58.060000 9.154449
58.080000 9.150164
58.100000 9.139283
58.120000 9.369400
58.140000 9.542678
58.160000 9.640758
58.180000 9.759800
58.200000 9.689111
58.220000 9.554189
58.240000 9.344838
58.260000 9.053190
58.280000 8.912302
58.300000 8.757299
58.320000 8.673391
58.340000 8.679931
58.360000 8.697603
58.380000 8.685476
58.400000 8.549811
58.420000 8.453356
58.440000 8.285386
58.460000 7.961796
58.480000 7.680090
58.500000 7.464816
58.520000 7.168561
58.540000 6.791479
58.560000 6.346396
58.580000 5.932260
58.600000 5.440770
58.620000 4.643908
58.640000 3.865013
58.660000 3.203228
58.680000 2.500175
58.700000 1.925463
58.720000 1.288436
58.740000 0.871528
58.760000 0.561549
58.780000 0.096161
58.800000 -0.418547
58.820000 -0.961807
58.840000 -1.509521
58.860000 -2.055470
58.880000 -2.626933
58.900000 -3.149735
58.920000 -3.482287
58.940000 -3.760212
58.960000 -4.015381
58.980000 -4.362315
59.000000 -4.694853
59.020000 -5.017504
59.040000 -5.450124
59.060000 -5.950254
59.080000 -6.440666
59.100000 -6.779352
59.120000 -7.062052
59.140000 -7.380040
59.160000 -7.665023
59.180000 -7.926073
59.200000 -8.172603
59.220000 -8.574849
59.240000 -8.985120
59.260000 -9.390335
59.280000 -9.724792
59.300000 -9.979597
59.320000 -10.326140
59.340000 -10.565010
59.360000 -10.720010
59.380000 -10.988960
59.400000 -11.300040
59.420000 -11.706760
59.440000 -12.230780
59.460000 -12.498100
59.480000 -12.769520
59.500000 -12.869080
59.520000 -12.769610
59.540000 -12.618140
59.560000 -12.232260
59.580000 -11.939300
59.600000 -11.695230
59.620000 -11.353470
59.640000 -11.102570
59.660000 -10.967090
59.680000 -10.974540
59.700000 -10.775110
59.720000 -10.199440
59.740000 -9.494100
59.760000 -8.684496
59.780000 -7.874149
59.800000 -7.299003
59.820000 -6.745001
59.840000 -6.351171
59.860000 -6.012121
59.880000 -5.600968
59.900000 -5.309600
59.920000 -4.826148
59.940000 -4.247109
59.960000 -3.628034
59.980000 -2.855538
60.000000 -2.190659
60.020000 -1.644401
60.040000 -1.142423
60.060000 -0.820457
60.080000 -0.498562
60.100000 -0.166430
60.120000 0.179985
60.140000 0.645877
60.160000 1.167125
60.180000 1.726111
60.200000 2.234363
60.220000 2.682709
60.240000 3.038660
60.260000 3.272699
60.280000 3.537124
60.300000 3.716942
60.320000 3.970500
60.340000 4.346883
60.360000 4.650434
60.380000 5.033972
60.400000 5.357268
60.420000 5.576841
60.440000 5.778503
60.460000 5.841406
60.480000 5.881428
60.500000 6.044427
60.520000 6.137045
60.540000 6.366238
60.560000 6.650311
60.580000 6.891491
60.600000 7.144643
60.620000 7.261502
60.640000 7.391397
60.660000 7.423549
60.680000 7.425117
60.700000 7.528168
60.720000 7.645586
60.740000 7.830164
60.760000 8.093666
60.780000 8.294096
60.800000 8.489485
60.820000 8.589399
60.840000 8.605853
60.860000 8.621172
60.880000 8.578210
60.900000 8.591919
60.920000 8.683823
60.940000 8.772143
60.960000 8.965459
60.980000 9.071101
61.000000 9.178366
61.020000 9.271965
61.040000 9.176952
61.060000 9.155653
61.080000 9.165021
61.100000 9.133402
61.120000 9.279079
61.140000 9.477954
61.160000 9.584100
61.180000 9.733474
61.200000 9.698521
61.220000 9.541796
61.240000 9.401202
61.260000 9.114441
61.280000 8.914431
61.300000 8.766331
61.320000 8.656615
61.340000 8.666165
61.360000 8.689299
61.380000 8.696875
61.400000 8.643130
61.420000 8.520698
61.440000 8.404862
61.460000 8.122667
61.480000 7.775789
61.500000 7.548445
61.520000 7.260171
61.540000 6.866859
61.560000 6.419283
61.580000 6.000442
61.600000 5.492456
61.620000 4.714947
61.640000 3.936164
61.660000 3.236276
61.680000 2.517217
61.700000 1.846722
61.720000 1.218209
61.740000 0.773112
61.760000 0.439314
61.780000 -0.013765
61.800000 -0.519287
61.820000 -1.004882
61.840000 -1.579454
61.860000 -2.156826
61.880000 -2.717213
61.900000 -3.220032
61.920000 -3.630569
61.940000 -3.889351
61.960000 -4.089865
61.980000 -4.438801
62.000000 -4.728335
62.020000 -5.049138
62.040000 -5.440308
62.060000 -5.928325
62.080000 -6.499452
62.100000 -6.801491
62.120000 -7.055624
62.140000 -7.426223
62.160000 -7.674797
62.180000 -7.920010
62.200000 -8.121686
62.220000 -8.465063
62.240000 -8.939301
62.260000 -9.300378
62.280000 -9.616504
62.300000 -9.976824
62.320000 -10.298410
62.340000 -10.557960
62.360000 -10.707060
62.380000 -10.942330
62.400000 -11.282610
62.420000 -11.635590
62.440000 -12.150200
62.460000 -12.455180
62.480000 -12.654760
62.500000 -12.815170
62.520000 -12.785830
62.540000 -12.629870
62.560000 -12.271910
62.580000 -11.957000
62.600000 -11.796800
62.620000 -11.458440
62.640000 -11.127340
62.660000 -11.060880
62.680000 -11.118560
62.700000 -10.952270
62.720000 -10.382680
62.740000 -9.475322
62.760000 -8.645678
62.780000 -7.933705
62.800000 -7.222096
62.820000 -6.608693
62.840000 -6.133362
62.860000 -5.851055
62.880000 -5.500830
62.900000 -5.068490
62.920000 -4.673904
62.940000 -4.136664
62.960000 -3.428066
62.980000 -2.664070
63.000000 -1.991657
63.020000 -1.456700
63.040000 -0.955898
63.060000 -0.644981
63.080000 -0.440686
63.100000 -0.120191
63.120000 0.231126
63.140000 0.591334
63.160000 1.059061
63.180000 1.657662
63.200000 2.183167
63.220000 2.526137
63.240000 2.896638
63.260000 3.179520
63.280000 3.327620
63.300000 3.498979
63.320000 3.768306
63.340000 4.159098
63.360000 4.490109
63.380000 4.875706
63.400000 5.265938
63.420000 5.488367
63.440000 5.655498
63.460000 5.734631
63.480000 5.812195
63.500000 5.892448
63.520000 6.043433
63.540000 6.347306
63.560000 6.617683
63.580000 6.853373
63.600000 7.169569
63.620000 7.382029
63.640000 7.409643
63.660000 7.474577
63.680000 7.518155
63.700000 7.619988
63.720000 7.743119
63.740000 7.886024
63.760000 8.271312
63.780000 8.486152
63.800000 8.618666
63.820000 8.800472
63.840000 8.822051
63.860000 8.760002
63.880000 8.748337
63.900000 8.759526
63.920000 8.801326
63.940000 8.953962
63.960000 9.070807
63.980000 9.206611
64.000000 9.319534
64.020000 9.280717
64.040000 9.244084
64.060000 9.160302
64.080000 9.052798
64.100000 9.012090
64.120000 9.179809
64.140000 9.284764
64.160000 9.379861
64.180000 9.545325
64.200000 9.466332
64.220000 9.331829
64.240000 9.120743
64.260000 8.869242
64.280000 8.710556
64.300000 8.520894
64.320000 8.430643
64.340000 8.505379
64.360000 8.555049
64.380000 8.592452
64.400000 8.561224
64.420000 8.464601
64.440000 8.353638
64.460000 8.119376
64.480000 7.799973
64.500000 7.582571
64.520000 7.352299
64.540000 7.041299
64.560000 6.600697
64.580000 6.179237
64.600000 5.689610
64.620000 4.924158
64.640000 4.161646
64.660000 3.322915
64.680000 2.595398
64.700000 2.015813
64.720000 1.327575
64.740000 0.858728
64.760000 0.501405
64.780000 0.075730
64.800000 -0.391996
64.820000 -1.021728
64.840000 -1.592071
64.860000 -2.117323
64.880000 -2.718319
64.900000 -3.232005
64.920000 -3.602268
64.940000 -3.860112
64.960000 -4.028712
64.980000 -4.346225
65.000000 -4.643418
65.020000 -4.949448
65.040000 -5.387221
65.060000 -5.838914
65.080000 -6.356198
65.100000 -6.686201
65.120000 -6.971898
65.140000 -7.295908
65.160000 -7.508451
65.180000 -7.787524
65.200000 -8.070644
65.220000 -8.408027
65.240000 -8.873625
65.260000 -9.320571
65.280000 -9.691114
65.300000 -10.061350
65.320000 -10.351010
65.340000 -10.604300
65.360000 -10.853130
65.380000 -11.043470
65.400000 -11.365200
65.420000 -11.798170
65.440000 -12.295390
65.460000 -12.667820
65.480000 -12.816090
65.500000 -12.861970
65.520000 -12.839170
65.540000 -12.595020
65.560000 -12.237530
65.580000 -11.871840
65.600000 -11.638910
65.620000 -11.342820
65.640000 -11.069060
65.660000 -11.004900
65.680000 -11.074460
65.700000 -10.891300
65.720000 -10.271580
65.740000 -9.434110
65.760000 -8.557933
65.780000 -7.799301
65.800000 -7.159095
65.820000 -6.631980
65.840000 -6.176423
65.860000 -5.861641
65.880000 -5.491378
65.900000 -5.119057
65.920000 -4.705691
65.940000 -4.067880
65.960000 -3.378942
65.980000 -2.655864
66.000000 -1.975175
66.020000 -1.456196
66.040000 -1.023352
66.060000 -0.777887
66.080000 -0.537589
66.100000 -0.266316
66.120000 0.082984
66.140000 0.523530
66.160000 1.020649
66.180000 1.610905
66.200000 2.132797
66.220000 2.485401
66.240000 2.828638
66.260000 3.104070
66.280000 3.240449
66.300000 3.484556
66.320000 3.780139
66.340000 4.180103
66.360000 4.625046
66.380000 4.989385
66.400000 5.389420
66.420000 5.628303
66.440000 5.709817
66.460000 5.820121
66.480000 5.842610
66.500000 5.923844
66.520000 6.114150
66.540000 6.389414
66.560000 6.657158
66.580000 6.962404
66.600000 7.192619
66.620000 7.317165
66.640000 7.388218
66.660000 7.367759
66.680000 7.400303
66.700000 7.495904
66.720000 7.641441
66.740000 7.868618
66.760000 8.205468
66.780000 8.449841
66.800000 8.584932
66.820000 8.749219
66.840000 8.714659
66.860000 8.626676
66.880000 8.636758
66.900000 8.647177
66.920000 8.722039
66.940000 8.883329
66.960000 9.053890
66.980000 9.210812
67.000000 9.317518
67.020000 9.250246
67.040000 9.225726
67.060000 9.161058
67.080000 9.052420
67.100000 9.111752
67.120000 9.218584
67.140000 9.424392
67.160000 9.641528
67.180000 9.713659
67.200000 9.705369
67.220000 9.572771
67.240000 9.344138
67.260000 9.069042
67.280000 8.865377
67.300000 8.670758
67.320000 8.653184
67.340000 8.700824
67.360000 8.674161
67.380000 8.745228
67.400000 8.693220
67.420000 8.555875
67.440000 8.361578
67.460000 8.070644
67.480000 7.754980
67.500000 7.495694
67.520000 7.252371
67.540000 6.883551
67.560000 6.489160
67.580000 6.089924
67.600000 5.523096
67.620000 4.814133
67.640000 3.972447
67.660000 3.153740
67.680000 2.466147
67.700000 1.813016
67.720000 1.182542
67.740000 0.758142
67.760000 0.393551
67.780000 0.018372
67.800000 -0.454423
67.820000 -1.064564
67.840000 -1.578109
67.860000 -2.129226
67.880000 -2.704778
67.900000 -3.162912
67.920000 -3.535528
67.940000 -3.784242
67.960000 -3.918464
67.980000 -4.204567
68.000000 -4.533072
68.020000 -4.862977
68.040000 -5.256290
68.060000 -5.766040
68.080000 -6.288968
68.100000 -6.645395
68.120000 -6.932436
68.140000 -7.187900
68.160000 -7.517357
68.180000 -7.791039
68.200000 -8.022767
68.220000 -8.468004
68.240000 -8.944622
68.260000 -9.366642
68.280000 -9.767964
68.300000 -10.099380
68.320000 -10.433610
68.340000 -10.630940
68.360000 -10.824710
68.380000 -11.107570
68.400000 -11.403320
68.420000 -11.818600
68.440000 -12.352020
68.460000 -12.702960
68.480000 -12.809500
68.500000 -12.868530
68.520000 -12.891430
68.540000 -12.603520
68.560000 -12.153050
68.580000 -11.904770
68.600000 -11.670640
68.620000 -11.400970
68.640000 -11.144850
68.660000 -11.102040
68.680000 -11.233000
68.700000 -10.893580
68.720000 -10.143390
68.740000 -9.387661
68.760000 -8.654921
68.780000 -7.855776
68.800000 -7.200545
68.820000 -6.690612
68.840000 -6.348720
68.860000 -6.034975
68.880000 -5.576322
68.900000 -5.261177
68.920000 -4.778593
68.940000 -4.052546
68.960000 -3.385272
68.980000 -2.628278
69.000000 -1.909639
69.020000 -1.401961
69.040000 -1.026965
69.060000 -0.749250
69.080000 -0.489334
69.100000 -0.125274
69.120000 0.167298
69.140000 0.612101
69.160000 1.256046
69.180000 1.762646
69.200000 2.183363
69.220000 2.579700
69.240000 2.949627
69.260000 3.082435
69.280000 3.257141
69.300000 3.544812
69.320000 3.836320
69.340000 4.240611
69.360000 4.632776
69.380000 5.022783
69.400000 5.347662
69.420000 5.522914
69.440000 5.654685
69.460000 5.736703
69.480000 5.723106
69.500000 5.874468
69.520000 6.146554
69.540000 6.347432
69.560000 6.644051
69.580000 6.925911
69.600000 7.170690
69.620000 7.274147
69.640000 7.251405
69.660000 7.345172
69.680000 7.362200
69.700000 7.468695
69.720000 7.630266
69.740000 7.887746
69.760000 8.235800
69.780000 8.405100
69.800000 8.589133
69.820000 8.709268
69.840000 8.694312
69.860000 8.701902
69.880000 8.714393
69.900000 8.732527
69.920000 8.882741
69.940000 9.067922
69.960000 9.230655
69.980000 9.342094
70.000000 9.366081
70.020000 9.399241
70.040000 9.316272
70.060000 9.172989
70.080000 9.188785
70.100000 9.193294
70.120000 9.359906
70.140000 9.512599
70.160000 9.599658
70.180000 9.736078
70.200000 9.603116
70.220000 9.390797
70.240000 9.172583
70.260000 8.894616
70.280000 8.710990
70.300000 8.563409
70.320000 8.535094
70.340000 8.592858
70.360000 8.621901
70.380000 8.642163
70.400000 8.561112
70.420000 8.409918
70.440000 8.260544
70.460000 8.022767
70.480000 7.675441
70.500000 7.501883
70.520000 7.304520
70.540000 6.991391
70.560000 6.574720
70.580000 6.070347
70.600000 5.573130
70.620000 4.873634
70.640000 3.986786
70.660000 3.165405
70.680000 2.516083
70.700000 1.913322
70.720000 1.295858
70.740000 0.805390
70.760000 0.432060
70.780000 0.098332
70.800000 -0.436149
70.820000 -1.076957
70.840000 -1.585069
70.860000 -2.142151
70.880000 -2.666675
70.900000 -3.168598
70.920000 -3.526720
70.940000 -3.740495
70.960000 -3.955587
70.980000 -4.213823
71.000000 -4.569719
71.020000 -4.937349
71.040000 -5.322119
71.060000 -5.784763
71.080000 -6.284571
71.100000 -6.643995
71.120000 -6.935391
71.140000 -7.116875
71.160000 -7.414964
71.180000 -7.788714
71.200000 -7.996944
71.220000 -8.402622
71.240000 -8.873317
71.260000 -9.352848
71.280000 -9.777052
71.300000 -10.017520
71.320000 -10.368620
71.340000 -10.658260
71.360000 -10.841840
71.380000 -11.111620
71.400000 -11.469360
71.420000 -11.891150
71.440000 -12.445240
71.460000 -12.786360
71.480000 -12.908850
71.500000 -12.948300
71.520000 -12.837100
71.540000 -12.650420
71.560000 -12.248730
71.580000 -11.817680
71.600000 -11.608340
71.620000 -11.357650
71.640000 -11.117930
71.660000 -11.066680
71.680000 -11.075920
71.700000 -10.837220
71.720000 -10.111480
71.740000 -9.194190
71.760000 -8.473339
71.780000 -7.750569
71.800000 -7.056968
71.820000 -6.564106
71.840000 -6.262011
71.860000 -5.996662
71.880000 -5.566296
71.900000 -5.221183
71.920000 -4.816794
71.940000 -4.145178
71.960000 -3.414427
71.980000 -2.704330
72.000000 -2.057193
72.020000 -1.499298
72.040000 -1.109375
72.060000 -0.889312
72.080000 -0.629381
72.100000 -0.247187
72.120000 0.037039
72.140000 0.495299
72.160000 1.101169
72.180000 1.677127
72.200000 2.119465
72.220000 2.467183
72.240000 2.861406
72.260000 3.046782
72.280000 3.166539
72.300000 3.464573
72.320000 3.819222
72.340000 4.194960
72.360000 4.580753
72.380000 5.013891
72.400000 5.368821
72.420000 5.528165
72.440000 5.690646
72.460000 5.758226
72.480000 5.803667
72.500000 5.948952
72.520000 6.198086
72.540000 6.484119
72.560000 6.755924
72.580000 7.044631
72.600000 7.292533
72.620000 7.369846
72.640000 7.326575
72.660000 7.427119
72.680000 7.429724
72.700000 7.490275
72.720000 7.666213
72.740000 7.903710
72.760000 8.241107
72.780000 8.403588
72.800000 8.540611
72.820000 8.711438
72.840000 8.636926
72.860000 8.621957
72.880000 8.641113
72.900000 8.664415
72.920000 8.821154
72.940000 9.010704
72.960000 9.169222
72.980000 9.318722
73.000000 9.365983
73.020000 9.376500
73.040000 9.312687
73.060000 9.184682
73.080000 9.210966
73.100000 9.248019
73.120000 9.400474
73.140000 9.555505
73.160000 9.683958
73.180000 9.788255
73.200000 9.642046
73.220000 9.407195
73.240000 9.203586
73.260000 8.921251
73.280000 8.731323
73.300000 8.566881
73.320000 8.590589
73.340000 8.682535
73.360000 8.678418
73.380000 8.707335
73.400000 8.648241
73.420000 8.501192
73.440000 8.311068
73.460000 8.043884
73.480000 7.721344
73.500000 7.559143
73.520000 7.323354
73.540000 6.969559
73.560000 6.566304
73.580000 6.098018
73.600000 5.547826
73.620000 4.791826
73.640000 3.897697
73.660000 3.091537
73.680000 2.465713
73.700000 1.851707
73.720000 1.215730
73.740000 0.760033
73.760000 0.448934
73.780000 0.082410
73.800000 -0.458708
73.820000 -1.140798
73.840000 -1.638478
73.860000 -2.153340
73.880000 -2.753146
73.900000 -3.223029
73.920000 -3.544658
73.940000 -3.723915
73.960000 -3.916952
73.980000 -4.260818
74.000000 -4.583988
74.020000 -4.902298
74.040000 -5.345337
74.060000 -5.851573
74.080000 -6.325335
74.100000 -6.684521
74.120000 -6.932745
74.140000 -7.149937
74.160000 -7.464424
74.180000 -7.754924
74.200000 -8.013510
74.220000 -8.403994
74.240000 -8.878204
74.260000 -9.345371
74.280000 -9.696449
74.300000 -9.974836
74.320000 -10.314150
74.340000 -10.562920
74.360000 -10.735570
74.380000 -10.957230
74.400000 -11.348430
74.420000 -11.825480
74.440000 -12.306330
74.460000 -12.631810
74.480000 -12.771360
74.500000 -12.861690
74.520000 -12.814310
74.540000 -12.505090
74.560000 -12.130810
74.580000 -11.885090
74.600000 -11.664170
74.620000 -11.440120
74.640000 -11.181720
74.660000 -11.122890
74.680000 -11.204320
74.700000 -10.863500
74.720000 -10.163310
74.740000 -9.297801
74.760000 -8.544462
74.780000 -7.878420
74.800000 -7.209465
74.820000 -6.721014
74.840000 -6.412996
74.860000 -6.141050
74.880000 -5.705980
74.900000 -5.306100
74.920000 -4.850738
74.940000 -4.158636
74.960000 -3.419482
74.980000 -2.710141
75.000000 -2.064390
75.020000 -1.532724
75.040000 -1.156902
75.060000 -0.852693
75.080000 -0.540516
75.100000 -0.150228
75.120000 0.220063
75.140000 0.686599
75.160000 1.285607
75.180000 1.824205
75.200000 2.217825
75.220000 2.595398
75.240000 2.957987
75.260000 3.161162
75.280000 3.325323
75.300000 3.652232
75.320000 4.013463
75.340000 4.384090
75.360000 4.779685
75.380000 5.158014
75.400000 5.458008
75.420000 5.593463
75.440000 5.689596
75.460000 5.769261
75.480000 5.800852
75.500000 5.941656
75.520000 6.185427
75.540000 6.413654
75.560000 6.662312
75.580000 6.931904
75.600000 7.121790
75.620000 7.169009
75.640000 7.169205
75.660000 7.232109
75.680000 7.298274
75.700000 7.363852
75.720000 7.574575
75.740000 7.857429
75.760000 8.140815
75.780000 8.335994
75.800000 8.484219
75.820000 8.620010
75.840000 8.624421
75.860000 8.631283
75.880000 8.680995
75.900000 8.763349
75.920000 8.937508
75.940000 9.125322
75.960000 9.310222
75.980000 9.395671
76.000000 9.450970
76.020000 9.465687
76.040000 9.360662
76.060000 9.271643
76.080000 9.272875
76.100000 9.327418
76.120000 9.468348
76.140000 9.558334
76.160000 9.662337
76.180000 9.695217
76.200000 9.545171
76.220000 9.298557
76.240000 9.060528
76.260000 8.809126
76.280000 8.617041
76.300000 8.497047
76.320000 8.486096
76.340000 8.526692
76.360000 8.569962
76.380000 8.570004
76.400000 8.486194
76.420000 8.363833
76.440000 8.193860
76.460000 7.954486
76.480000 7.696824
76.500000 7.495638
76.520000 7.307615
76.540000 6.992259
76.560000 6.517755
76.580000 6.074086
76.600000 5.493815
76.620000 4.729259
76.640000 3.882853
76.660000 3.071316
76.680000 2.458347
76.700000 1.858611
76.720000 1.246412
76.740000 0.793879
76.760000 0.440854
76.780000 0.053731
76.800000 -0.482486
76.820000 -1.117189
76.840000 -1.612096
76.860000 -2.099833
76.880000 -2.648373
76.900000 -3.111436
76.920000 -3.402776
76.940000 -3.661096
76.960000 -3.869816
76.980000 -4.223541
77.000000 -4.574984
77.020000 -4.930319
77.040000 -5.351666
77.060000 -5.807098
77.080000 -6.298644
77.100000 -6.621716
77.120000 -6.888116
77.140000 -7.143621
77.160000 -7.438224
77.180000 -7.799875
77.200000 -8.063306
77.220000 -8.456801
77.240000 -8.953332
77.260000 -9.400306
77.280000 -9.729763
77.300000 -9.969767
77.320000 -10.301700
77.340000 -10.547420
77.360000 -10.767970
77.380000 -10.991650
77.400000 -11.357960
77.420000 -11.791090
77.440000 -12.293510
77.460000 -12.680200
77.480000 -12.881540
77.500000 -12.833090
77.520000 -12.750390
77.540000 -12.594810
77.560000 -12.204540
77.580000 -11.821010
77.600000 -11.584610
77.620000 -11.373900
77.640000 -11.133870
77.660000 -10.918230
77.680000 -11.005830
77.700000 -10.828070
77.720000 -10.109040
77.740000 -9.219186
77.760000 -8.472373
77.780000 -7.814424
77.800000 -7.082132
77.820000 -6.546210
77.840000 -6.234005
77.860000 -5.934879
77.880000 -5.477375
77.900000 -5.122109
77.920000 -4.781211
77.940000 -4.115869
77.960000 -3.392540
77.980000 -2.757823
78.000000 -2.113458
78.020000 -1.507644
78.040000 -1.111531
78.060000 -0.899408
78.080000 -0.598350
78.100000 -0.227807
78.120000 0.055943
78.140000 0.451791
78.160000 1.048390
78.180000 1.605878
78.200000 2.041327
78.220000 2.413788
78.240000 2.868015
78.260000 3.103650
78.280000 3.212568
78.300000 3.588181
78.320000 3.896283
78.340000 4.220138
78.360000 4.625158
78.380000 5.047415
78.400000 5.411349
78.420000 5.546635
78.440000 5.739392
78.460000 5.890936
78.480000 5.862201
78.500000 6.021377
78.520000 6.282302
78.540000 6.521522
78.560000 6.750197
78.580000 7.019691
78.600000 7.319616
78.620000 7.360981
78.640000 7.352832
78.660000 7.481452
78.680000 7.457157
78.700000 7.487502
78.720000 7.648919
78.740000 7.853270
78.760000 8.168822
78.780000 8.266509
78.800000 8.465217
78.820000 8.669428
78.840000 8.553060
78.860000 8.567105
78.880000 8.646603
78.900000 8.650383
78.920000 8.737456
78.940000 8.903900
78.960000 9.137224
78.980000 9.226300
79.000000 9.254307
79.020000 9.374736
79.040000 9.321551
79.060000 9.222155
79.080000 9.179235
79.100000 9.252598
79.120000 9.444808
79.140000 9.510680
79.160000 9.648263
79.180000 9.817312
79.200000 9.666580
79.220000 9.477590
79.240000 9.295757
79.260000 9.029665
79.280000 8.841417
79.300000 8.662692
79.320000 8.668798
79.340000 8.708763
79.360000 8.691637
79.380000 8.738773
79.400000 8.727584
79.420000 8.550371
79.440000 8.356985
79.460000 8.162254
79.480000 7.864907
79.500000 7.584055
79.520000 7.339052
79.540000 7.004246
79.560000 6.588304
79.580000 6.075220
79.600000 5.498142
79.620000 4.824874
79.640000 3.953024
79.660000 3.065449
79.680000 2.426013
79.700000 1.821810
79.720000 1.136653
79.740000 0.649658
79.760000 0.319991
79.780000 0.003179
79.800000 -0.540544
79.820000 -1.168189
79.840000 -1.598778
79.860000 -2.129114
79.880000 -2.711766
79.900000 -3.205441
79.920000 -3.528820
79.940000 -3.709450
79.960000 -3.993536
79.980000 -4.297073
80.000000 -4.556471
80.020000 -4.902761
80.040000 -5.338853
80.060000 -5.809633
80.080000 -6.272416
80.100000 -6.663964
80.120000 -6.957348
80.140000 -7.230848
80.160000 -7.487432
80.180000 -7.796150
80.200000 -8.061878
80.220000 -8.393464
80.240000 -8.857913
80.260000 -9.324295
80.280000 -9.677712
80.300000 -9.928919
80.320000 -10.292210
80.340000 -10.602230
80.360000 -10.753170
80.380000 -10.963540
80.400000 -11.339480
80.420000 -11.798910
80.440000 -12.263760
80.460000 -12.602640
80.480000 -12.829650
80.500000 -12.885170
80.520000 -12.813160
80.540000 -12.622410
80.560000 -12.287620
80.580000 -11.894470
80.600000 -11.647540
80.620000 -11.418430
80.640000 -11.193530
80.660000 -10.989230
80.680000 -11.005400
80.700000 -10.867720
80.720000 -10.288190
80.740000 -9.388291
80.760000 -8.571124
80.780000 -7.936548
80.800000 -7.192773
80.820000 -6.636783
80.840000 -6.244087
80.860000 -5.991284
80.880000 -5.527157
80.900000 -5.132248
80.920000 -4.802524
80.940000 -4.180089
80.960000 -3.450696
80.980000 -2.760288
81.000000 -2.151001
81.020000 -1.546588
81.040000 -1.079758
81.060000 -0.850410
81.080000 -0.587455
81.100000 -0.194563
81.120000 0.178431
81.140000 0.543093
81.160000 1.122258
81.180000 1.750295
81.200000 2.199915
81.220000 2.550573
81.240000 2.963616
81.260000 3.248963
81.280000 3.334300
81.300000 3.643690
81.320000 3.966481
81.340000 4.307898
81.360000 4.681577
81.380000 5.088025
81.400000 5.451987
81.420000 5.573606
81.440000 5.752149
81.460000 5.861809
81.480000 5.877353
81.500000 5.966218
81.520000 6.163918
81.540000 6.460803
81.560000 6.652551
81.580000 6.884069
81.600000 7.186360
81.620000 7.288360
81.640000 7.248366
81.660000 7.307783
81.680000 7.355282
81.700000 7.401969
81.720000 7.558709
81.740000 7.756913
81.760000 8.088008
81.780000 8.257155
81.800000 8.429578
81.820000 8.623049
81.840000 8.594874
81.860000 8.604957
81.880000 8.639125
81.900000 8.733549
81.920000 8.799057
81.940000 8.964465
81.960000 9.229395
81.980000 9.312239
82.000000 9.377312
82.020000 9.384328
82.040000 9.369960
82.060000 9.305139
82.080000 9.153174
82.100000 9.214467
82.120000 9.390181
82.140000 9.446559
82.160000 9.558418
82.180000 9.653487
82.200000 9.574115
82.220000 9.436378
82.240000 9.157935
82.260000 8.930101
82.280000 8.772213
82.300000 8.553144
82.320000 8.546478
82.340000 8.572777
82.360000 8.577888
82.380000 8.634434
82.400000 8.554404
82.420000 8.419062
82.440000 8.233811
82.460000 8.032583
82.480000 7.767975
82.500000 7.472350
82.520000 7.263714
82.540000 6.992133
82.560000 6.595277
82.580000 6.129609
82.600000 5.558916
82.620000 4.900954
82.640000 4.109120
82.660000 3.181649
82.680000 2.483175
82.700000 1.914232
82.720000 1.294429
82.740000 0.772356
82.760000 0.371229
82.780000 0.034910
82.800000 -0.423378
82.820000 -1.056764
82.840000 -1.633591
82.860000 -2.113094
82.880000 -2.663244
82.900000 -3.184940
82.920000 -3.504160
82.940000 -3.777856
82.960000 -3.995651
82.980000 -4.236466
83.000000 -4.581985
83.020000 -4.908488
83.040000 -5.315986
83.060000 -5.789538
83.080000 -6.213602
83.100000 -6.582044
83.120000 -6.926989
83.140000 -7.155160
83.160000 -7.376189
83.180000 -7.697370
83.200000 -7.987030
83.220000 -8.379992
83.240000 -8.788163
83.260000 -9.256743
83.280000 -9.675374
83.300000 -10.006260
83.320000 -10.312790
83.340000 -10.582400
83.360000 -10.851400
83.380000 -11.096810
83.400000 -11.419310
83.420000 -11.861760
83.440000 -12.373080
83.460000 -12.808820
83.480000 -13.038140
83.500000 -13.003880
83.520000 -12.959300
83.540000 -12.769540
83.560000 -12.405790
83.580000 -11.988530
83.600000 -11.675470
83.620000 -11.449670
83.640000 -11.195890
83.660000 -10.996520
83.680000 -11.026040
83.700000 -10.806410
83.720000 -10.255930
83.740000 -9.387927
83.760000 -8.490577
83.780000 -7.754448
83.800000 -7.128120
83.820000 -6.572144
83.840000 -6.139272
83.860000 -5.863223
83.880000 -5.511991
83.900000 -5.175056
83.920000 -4.765934
83.940000 -4.153216
83.960000 -3.500295
83.980000 -2.761240
84.000000 -2.043329
84.020000 -1.550985
84.040000 -1.101043
84.060000 -0.795391
84.080000 -0.572206
84.100000 -0.253755
84.120000 0.111243
84.140000 0.511781
84.160000 1.081746
84.180000 1.622276
84.200000 2.131298
84.220000 2.544538
84.240000 2.812198
84.260000 3.105008
84.280000 3.285386
84.300000 3.484556
84.320000 3.782477
84.340000 4.201990
84.360000 4.617484
84.380000 5.017854
84.400000 5.406798
84.420000 5.629983
84.440000 5.829671
84.460000 5.915022
84.480000 5.913636
84.500000 6.106392
84.520000 6.303391
84.540000 6.523314
84.560000 6.835715
84.580000 7.097900
84.600000 7.324615
84.620000 7.434891
84.640000 7.435857
84.660000 7.412248
84.680000 7.403412
84.700000 7.471244
84.720000 7.594054
84.740000 7.769516
84.760000 8.076820
84.780000 8.271312
84.800000 8.465245
84.820000 8.548761
84.840000 8.543426
84.860000 8.584134
84.880000 8.534562
84.900000 8.580087
84.920000 8.703792
84.940000 8.870978
84.960000 9.111920
84.980000 9.232111
85.000000 9.327866
85.020000 9.405291
85.040000 9.300322
85.060000 9.240821
85.080000 9.231285
85.100000 9.205939
85.120000 9.399718
85.140000 9.593776
85.160000 9.736611
85.180000 9.860400
85.200000 9.807047
85.220000 9.673273
85.240000 9.432513
85.260000 9.144996
85.280000 8.937550
85.300000 8.774999
85.320000 8.717446
85.340000 8.708665
85.360000 8.766373
85.380000 8.790347
85.400000 8.703428
85.420000 8.564725
85.440000 8.387596
85.460000 8.157199
85.480000 7.788476
85.500000 7.511448
85.520000 7.330706
85.540000 6.966941
85.560000 6.505572
85.580000 6.039176
85.600000 5.528977
85.620000 4.832212
85.640000 3.927650
85.660000 3.085264
85.680000 2.406170
85.700000 1.766637
85.720000 1.132662
85.740000 0.605128
85.760000 0.284996
85.780000 -0.039756
85.800000 -0.581952
85.820000 -1.107386
85.840000 -1.638576
85.860000 -2.179134
85.880000 -2.636302
85.900000 -3.182825
85.920000 -3.507675
85.940000 -3.713693
85.960000 -3.926712
85.980000 -4.110758
86.000000 -4.488499
86.020000 -4.853539
86.040000 -5.205989
86.060000 -5.697886
86.080000 -6.214106
86.100000 -6.629404
86.120000 -6.918055
86.140000 -7.157485
86.160000 -7.439330
86.180000 -7.789456
86.200000 -8.056431
86.220000 -8.400787
86.240000 -8.894994
86.260000 -9.359780
86.280000 -9.759814
86.300000 -10.083080
86.320000 -10.409250
86.340000 -10.699170
86.360000 -10.897360
86.380000 -11.151920
86.400000 -11.510070
86.420000 -11.927260
86.440000 -12.465960
86.460000 -12.828540
86.480000 -12.891260
86.500000 -12.937490
86.520000 -12.944780
86.540000 -12.692670
86.560000 -12.235040
86.580000 -11.852560
86.600000 -11.631110
86.620000 -11.354710
86.640000 -11.063710
86.660000 -10.962240
86.680000 -10.989560
86.700000 -10.666070
86.720000 -9.946913
86.740000 -9.124691
86.760000 -8.399751
86.780000 -7.643863
86.800000 -6.986756
86.820000 -6.532906
86.840000 -6.198394
86.860000 -5.929011
86.880000 -5.564938
86.900000 -5.249092
86.920000 -4.804191
86.940000 -4.129019
86.960000 -3.475748
86.980000 -2.757529
87.000000 -2.067989
87.020000 -1.562019
87.040000 -1.194501
87.060000 -0.941740
87.080000 -0.647152
87.100000 -0.320607
87.120000 0.008094
87.140000 0.489502
87.160000 1.074254
87.180000 1.660519
87.200000 2.100687
87.220000 2.474535
87.240000 2.880983
87.260000 3.059862
87.280000 3.246344
87.300000 3.574023
87.320000 3.885402
87.340000 4.303641
87.360000 4.756789
87.380000 5.166500
87.400000 5.502945
87.420000 5.736353
87.440000 5.897252
87.460000 5.941866
87.480000 5.957774
87.500000 6.153905
87.520000 6.319453
87.540000 6.567243
87.560000 6.821544
87.580000 7.079584
87.600000 7.301873
87.620000 7.321576
87.640000 7.306340
87.660000 7.364972
87.680000 7.333129
87.700000 7.404756
87.720000 7.546610
87.740000 7.790059
87.760000 8.127498
87.780000 8.281437
87.800000 8.498937
87.820000 8.584498
87.840000 8.556617
87.860000 8.601778
87.880000 8.564837
87.900000 8.605517
87.920000 8.764371
87.940000 8.934498
87.960000 9.142294
87.980000 9.238287
88.000000 9.355887
88.020000 9.370100
88.040000 9.274724
88.060000 9.223891
88.080000 9.182231
88.100000 9.247627
88.120000 9.410934
88.140000 9.544512
88.160000 9.742730
88.180000 9.799388
88.200000 9.687207
88.220000 9.543616
88.240000 9.243342
88.260000 9.009290
88.280000 8.786020
88.300000 8.603444
88.320000 8.627936
88.340000 8.615669
88.360000 8.679062
88.380000 8.734908
88.400000 8.613555
88.420000 8.544798
88.440000 8.338725
88.460000 8.074355
88.480000 7.800715
88.500000 7.534805
88.520000 7.356794
88.540000 6.982204
88.560000 6.543507
88.580000 6.120857
88.600000 5.533920
88.620000 4.802062
88.640000 3.917568
88.660000 3.063068
88.680000 2.449413
88.700000 1.799965
88.720000 1.170387
88.740000 0.734406
88.760000 0.401336
88.780000 0.062175
88.800000 -0.465262
88.820000 -1.076579
88.840000 -1.567425
88.860000 -2.103530
88.880000 -2.634397
88.900000 -3.116295
88.920000 -3.456647
88.940000 -3.644040
88.960000 -3.833450
88.980000 -4.096363
89.000000 -4.467620
89.020000 -4.824258
89.040000 -5.214265
89.060000 -5.693139
89.080000 -6.232114
89.100000 -6.641475
89.120000 -6.881478
89.140000 -7.137516
89.160000 -7.458949
89.180000 -7.810462
89.200000 -8.060226
89.220000 -8.405255
89.240000 -8.960628
89.260000 -9.458560
89.280000 -9.763875
89.300000 -10.095570
89.320000 -10.417610
89.340000 -10.715740
89.360000 -10.928510
89.380000 -11.094150
89.400000 -11.529770
89.420000 -11.946310
89.440000 -12.438620
89.460000 -12.874640
89.480000 -12.889550
89.500000 -12.949040
89.520000 -12.891250
89.540000 -12.599850
89.560000 -12.230370
89.580000 -11.787100
89.600000 -11.558140
89.620000 -11.332980
89.640000 -11.025230
89.660000 -10.952450
89.680000 -10.985210
89.700000 -10.644200
89.720000 -9.932574
89.740000 -9.124845
89.760000 -8.400843
89.780000 -7.623965
89.800000 -6.953077
89.820000 -6.572074
89.840000 -6.222662
89.860000 -5.951081
89.880000 -5.591194
89.900000 -5.255841
89.920000 -4.844549
89.940000 -4.130335
89.960000 -3.499441
89.980000 -2.813556
90.000000 -2.094624
90.020000 -1.628493
90.040000 -1.289682
90.060000 -0.975306
90.080000 -0.679261
90.100000 -0.376551
90.120000 -0.038061
90.140000 0.480035
90.160000 1.075571
90.180000 1.599507
90.200000 2.057893
90.220000 2.495806
90.240000 2.852752
90.260000 3.015191
90.280000 3.234287
90.300000 3.559600
90.320000 3.822191
90.340000 4.238217
90.360000 4.701364
90.380000 5.056041
90.400000 5.414079
90.420000 5.642180
90.440000 5.774078
90.460000 5.873936
90.480000 5.893625
90.500000 6.084001
90.520000 6.313096
90.540000 6.498192
90.560000 6.792025
90.580000 7.117995
90.600000 7.276093
90.620000 7.346138
90.640000 7.394239
90.660000 7.429080
90.680000 7.401045
90.700000 7.446556
90.720000 7.607567
90.740000 7.854236
90.760000 8.087140
90.780000 8.295930
90.800000 8.498545
90.820000 8.543440
90.840000 8.561042
90.860000 8.575479
90.880000 8.542151
90.900000 8.608205
90.920000 8.760632
90.940000 8.941317
90.960000 9.135614
90.980000 9.234604
91.000000 9.344432
91.020000 9.383362
91.040000 9.294734
91.060000 9.231985
91.080000 9.245779
91.100000 9.295953
91.120000 9.439823
91.140000 9.597529
91.160000 9.795845
91.180000 9.834144
91.200000 9.740265
91.220000 9.572757
91.240000 9.306161
91.260000 9.071199
91.280000 8.808986
91.300000 8.667832
91.320000 8.663183
91.340000 8.635792
91.360000 8.679006
91.380000 8.705235
91.400000 8.586640
91.420000 8.501430
91.440000 8.300397
91.460000 8.032023
91.480000 7.746704
91.500000 7.520200
91.520000 7.279370
91.540000 6.923866
91.560000 6.449026
91.580000 6.025719
91.600000 5.490622
91.620000 4.686465
91.640000 3.839765
91.660000 3.067213
91.680000 2.443587
91.700000 1.795904
91.720000 1.195943
91.740000 0.742935
91.760000 0.457686
91.780000 0.073350
91.800000 -0.490118
91.820000 -1.042159
91.840000 -1.548296
91.860000 -2.105392
91.880000 -2.619652
91.900000 -3.119866
91.920000 -3.424425
91.940000 -3.612658
91.960000 -3.832119
91.980000 -4.124271
92.000000 -4.521533
92.020000 -4.847461
92.040000 -5.280907
92.060000 -5.808722
92.080000 -6.316386
92.100000 -6.709055
92.120000 -6.912832
92.140000 -7.184035
92.160000 -7.560669
92.180000 -7.809271
92.200000 -8.080488
92.220000 -8.482917
92.240000 -8.993228
92.260000 -9.484634
92.280000 -9.766984
92.300000 -10.095210
92.320000 -10.474060
92.340000 -10.694410
92.360000 -10.876970
92.380000 -11.098930
92.400000 -11.499540
92.420000 -11.949720
92.440000 -12.433480
92.460000 -12.780480
92.480000 -12.861200
92.500000 -12.892610
92.520000 -12.828230
92.540000 -12.577870
92.560000 -12.130960
92.580000 -11.778620
92.600000 -11.599580
92.620000 -11.359570
92.640000 -11.040720
92.660000 -11.003300
92.680000 -11.078120
92.700000 -10.744680
92.720000 -9.969010
92.740000 -9.099303
92.760000 -8.524647
92.780000 -7.755176
92.800000 -7.026679
92.820000 -6.652117
92.840000 -6.363466
92.860000 -6.094125
92.880000 -5.617226
92.900000 -5.317904
92.920000 -4.907802
92.940000 -4.093156
92.960000 -3.429788
92.980000 -2.800687
93.000000 -2.081530
93.020000 -1.559723
93.040000 -1.221906
93.060000 -1.005036
93.080000 -0.669753
93.100000 -0.257508
93.120000 0.004187
93.140000 0.491056
93.160000 1.169155
93.180000 1.668123
93.200000 2.038358
93.220000 2.441011
93.240000 2.845876
93.260000 2.975603
93.280000 3.178162
93.300000 3.549979
93.320000 3.879843
93.340000 4.262443
93.360000 4.668302
93.380000 5.121311
93.400000 5.376648
93.420000 5.510227
93.440000 5.748634
93.460000 5.799802
93.480000 5.829825
93.500000 6.079842
93.520000 6.354462
93.540000 6.601383
93.560000 6.848780
93.580000 7.162022
93.600000 7.400345
93.620000 7.389450
93.640000 7.360785
93.660000 7.516335
93.680000 7.479562
93.700000 7.532985
93.720000 7.729522
93.740000 7.991903
93.760000 8.230689
93.780000 8.331583
93.800000 8.532601
93.820000 8.567357
93.840000 8.516161
93.860000 8.538609
93.880000 8.554096
93.900000 8.630177
93.920000 8.738647
93.940000 8.963135
93.960000 9.149603
93.980000 9.164545
94.000000 9.250876
94.020000 9.292872
94.040000 9.173087
94.060000 9.071171
94.080000 9.102706
94.100000 9.226216
94.120000 9.385056
94.140000 9.486216
94.160000 9.678917
94.180000 9.772767
94.200000 9.607570
94.220000 9.400936
94.240000 9.203993
94.260000 8.978608
94.280000 8.803762
94.300000 8.689285
94.320000 8.697043
94.340000 8.769034
94.360000 8.790823
94.380000 8.790179
94.400000 8.708651
94.420000 8.537292
94.440000 8.340867
94.460000 8.118802
94.480000 7.800561
94.500000 7.554578
94.520000 7.356304
94.540000 6.982428
94.560000 6.492535
94.580000 5.965406
94.600000 5.389027
94.620000 4.651834
94.640000 3.729461
94.660000 2.937066
94.680000 2.330972
94.700000 1.746794
94.720000 1.162167
94.740000 0.679023
94.760000 0.420395
94.780000 0.039475
94.800000 -0.517494
94.820000 -1.089616
94.840000 -1.555676
94.860000 -2.075817
94.880000 -2.559199
94.900000 -3.003176
94.920000 -3.281745
94.940000 -3.479472
94.960000 -3.734964
94.980000 -4.007441
95.000000 -4.392198
95.020000 -4.803995
95.040000 -5.194367
95.060000 -5.707226
95.080000 -6.206796
95.100000 -6.591048
95.120000 -6.863750
95.140000 -7.133959
95.160000 -7.513548
95.180000 -7.874387
95.200000 -8.152354
95.220000 -8.531453
95.240000 -9.104303
95.260000 -9.569508
95.280000 -9.867234
95.300000 -10.126480
95.320000 -10.458810
95.340000 -10.746180
95.360000 -10.906820
95.380000 -11.133610
95.400000 -11.528400
95.420000 -11.985120
95.440000 -12.447060
95.460000 -12.854360
95.480000 -12.933070
95.500000 -12.860410
95.520000 -12.827180
95.540000 -12.536530
95.560000 -12.146950
95.580000 -11.731150
95.600000 -11.521120
95.620000 -11.339270
95.640000 -10.975980
95.660000 -10.866840
95.680000 -10.843690
95.700000 -10.652820
95.720000 -10.009660
95.740000 -9.073649
95.760000 -8.419804
95.780000 -7.727884
95.800000 -7.010141
95.820000 -6.610765
95.840000 -6.251789
95.860000 -5.995261
95.880000 -5.600926
95.900000 -5.182394
95.920000 -4.837085
95.940000 -4.163467
95.960000 -3.501206
95.980000 -2.875157
96.000000 -2.195504
96.020000 -1.653559
96.040000 -1.238178
96.060000 -0.955044
96.080000 -0.642979
96.100000 -0.231574
96.120000 0.101608
96.140000 0.514316
96.160000 1.066930
96.180000 1.638870
96.200000 2.057052
96.220000 2.382785
96.240000 2.849279
96.260000 3.079858
96.280000 3.250755
96.300000 3.607113
96.320000 3.898593
96.340000 4.287831
96.360000 4.693018
96.380000 5.053129
96.400000 5.414906
96.420000 5.581098
96.440000 5.769135
96.460000 5.913650
96.480000 5.935411
96.500000 6.115312
96.520000 6.325825
96.540000 6.557874
96.560000 6.751793
96.580000 6.960163
96.600000 7.188964
96.620000 7.248829
96.640000 7.237836
96.660000 7.306116
96.680000 7.342959
96.700000 7.415175
96.720000 7.533377
96.740000 7.777666
96.760000 8.059735
96.780000 8.175991
96.800000 8.382765
96.820000 8.517800
96.840000 8.499469
96.860000 8.551674
96.880000 8.591961
96.900000 8.678180
96.920000 8.810372
96.940000 8.986562
96.960000 9.190563
96.980000 9.313975
97.000000 9.386975
97.020000 9.434670
97.040000 9.441280
97.060000 9.361810
97.080000 9.341562
97.100000 9.451068
97.120000 9.582602
97.140000 9.685092
97.160000 9.819454
97.180000 9.841342
97.200000 9.786224
97.220000 9.556065
97.240000 9.324562
97.260000 9.161716
97.280000 8.914935
97.300000 8.773151
97.320000 8.761066
97.340000 8.719070
97.360000 8.772213
97.380000 8.733815
97.400000 8.645888
97.420000 8.513529
97.440000 8.299333
97.460000 8.079004
97.480000 7.775425
97.500000 7.497430
97.520000 7.232655
97.540000 6.853093
97.560000 6.396458
97.580000 5.890250
97.600000 5.307220
97.620000 4.624192
97.640000 3.800346
97.660000 3.019070
97.680000 2.397250
97.700000 1.774212
97.720000 1.236063
97.740000 0.744937
97.760000 0.389658
97.780000 0.009046
97.800000 -0.518783
97.820000 -1.048194
97.840000 -1.557286
97.860000 -2.058355
97.880000 -2.577516
97.900000 -3.051502
97.920000 -3.364939
97.940000 -3.634434
97.960000 -3.869074
97.980000 -4.174347
98.000000 -4.503385
98.020000 -4.846285
98.040000 -5.287545
98.060000 -5.746043
98.080000 -6.214092
98.100000 -6.597126
98.120000 -6.885511
98.140000 -7.196764
98.160000 -7.499909
98.180000 -7.788938
98.200000 -8.091369
98.220000 -8.467527
98.240000 -8.949691
98.260000 -9.384594
98.280000 -9.744550
98.300000 -10.097660
98.320000 -10.412820
98.340000 -10.682310
98.360000 -10.921200
98.380000 -11.145620
98.400000 -11.508540
98.420000 -11.909990
98.440000 -12.377020
98.460000 -12.733390
98.480000 -12.855820
98.500000 -12.857680
98.520000 -12.865100
98.540000 -12.619320
98.560000 -12.249360
98.580000 -11.902440
98.600000 -11.656610
98.620000 -11.391700
98.640000 -11.088030
98.660000 -10.933770
98.680000 -10.953360
98.700000 -10.725090
98.720000 -10.045870
98.740000 -9.264263
98.760000 -8.456703
98.780000 -7.765987
98.800000 -7.075145
98.820000 -6.532458
98.840000 -6.168483
98.860000 -5.868167
98.880000 -5.461985
98.900000 -5.113469
98.920000 -4.714793
98.940000 -4.069616
98.960000 -3.440137
98.980000 -2.697566
99.000000 -2.066645
99.020000 -1.524126
99.040000 -1.049944
99.060000 -0.816130
99.080000 -0.507846
99.100000 -0.190418
99.120000 0.142162
99.140000 0.552237
99.160000 1.062785
99.180000 1.681650
99.200000 2.097438
99.220000 2.510103
99.240000 2.907645
99.260000 3.116701
99.280000 3.311628
99.300000 3.564655
99.320000 3.841571
99.340000 4.227770
99.360000 4.596143
99.380000 4.981614
99.400000 5.360601
99.420000 5.544073
99.440000 5.726999
99.460000 5.836071
99.480000 5.857748
99.500000 6.009839
99.520000 6.189194
99.540000 6.436297
99.560000 6.681664
99.580000 6.924987
99.600000 7.175003
99.620000 7.291553
99.640000 7.308035
99.660000 7.359861
99.680000 7.395472
99.700000 7.463920
99.720000 7.608715
99.740000 7.849153
99.760000 8.107389
99.780000 8.309485
99.800000 8.519774
99.820000 8.621901
99.840000 8.620080
99.860000 8.666375
99.880000 8.636156
99.900000 8.696553
99.920000 8.806619
99.940000 8.946261
99.960000 9.152264
99.980000 9.241844
100.000000 9.334574
100.020000 9.363687
100.040000 9.310446
100.060000 9.206079
100.080000 9.198979
100.100000 9.228652
100.120000 9.359556
100.140000 9.495431
100.160000 9.606659
100.180000 9.731499
100.200000 9.616658
100.220000 9.447217
100.240000 9.262401
100.260000 9.007539
100.280000 8.802586
100.300000 8.646140
100.320000 8.620318
100.340000 8.616117
100.360000 8.669218
100.380000 8.659962
100.400000 8.598459
100.420000 8.498573
100.440000 8.265781
100.460000 8.043001
100.480000 7.738008
100.500000 7.471160
100.520000 7.175731
100.540000 6.850209
100.560000 6.420067
100.580000 5.915722
100.600000 5.412623
100.620000 4.674016
100.640000 3.859006
100.660000 3.089745
100.680000 2.379928
100.700000 1.786998
100.720000 1.212706
100.740000 0.700294
100.760000 0.385961
100.780000 0.033832
100.800000 -0.484979
100.820000 -0.956024
100.840000 -1.510669
100.860000 -2.000899
100.880000 -2.484939
100.900000 -3.040117
100.920000 -3.288509
100.940000 -3.569584
100.960000 -3.850044
100.980000 -4.063553
101.000000 -4.442330
101.020000 -4.781435
101.040000 -5.183696
101.060000 -5.685731
101.080000 -6.132004
101.100000 -6.532248
101.120000 -6.864254
101.140000 -7.162582
101.160000 -7.469634
101.180000 -7.771518
101.200000 -8.118298
101.220000 -8.544812
101.240000 -8.994838
101.260000 -9.477674
101.280000 -9.829747
101.300000 -10.174520
101.320000 -10.522900
101.340000 -10.725080
101.360000 -10.986660
101.380000 -11.209460
101.400000 -11.550910
101.420000 -11.944050
101.440000 -12.430720
101.460000 -12.866540
101.480000 -12.977120
101.500000 -12.943630
101.520000 -12.867860
101.540000 -12.638980
101.560000 -12.240290
101.580000 -11.773190
101.600000 -11.500170
101.620000 -11.247480
101.640000 -10.928310
101.660000 -10.781050
101.680000 -10.815650
101.700000 -10.665850
101.720000 -9.981669
101.740000 -9.062825
101.760000 -8.399121
101.780000 -7.649017
101.800000 -6.930322
101.820000 -6.460215
101.840000 -6.122804
101.860000 -5.892336
101.880000 -5.451679
101.900000 -5.179957
101.920000 -4.832716
101.940000 -4.160232
101.960000 -3.515657
101.980000 -2.880058
102.000000 -2.179988
102.020000 -1.616199
102.040000 -1.222662
102.060000 -0.999140
102.080000 -0.710531
102.100000 -0.324024
102.120000 -0.050356
102.140000 0.356204
102.160000 1.002725
102.180000 1.595502
102.200000 2.021988
102.220000 2.452340
102.240000 2.888306
102.260000 3.102390
102.280000 3.263975
102.300000 3.581179
102.320000 3.874031
102.340000 4.239505
102.360000 4.650336
102.380000 5.072915
102.400000 5.399320
102.420000 5.576449
102.440000 5.770409
102.460000 5.830035
102.480000 5.826843
102.500000 5.952943
102.520000 6.134133
102.540000 6.406008
102.560000 6.597126
102.580000 6.914694
102.600000 7.207701
102.620000 7.242947
102.640000 7.297462
102.660000 7.347230
102.680000 7.387840
102.700000 7.439064
102.720000 7.580344
102.740000 7.856351
102.760000 8.130130
102.780000 8.324063
102.800000 8.541003
102.820000 8.661894
102.840000 8.615725
102.860000 8.625808
102.880000 8.635106
102.900000 8.638355
102.920000 8.731925
102.940000 8.922147
102.960000 9.140767
102.980000 9.240065
103.000000 9.314801
103.020000 9.369302
103.040000 9.322279
103.060000 9.203712
103.080000 9.162473
103.100000 9.229689
103.120000 9.358492
103.140000 9.510610
103.160000 9.702316
103.180000 9.841580
103.200000 9.785510
103.220000 9.607682
103.240000 9.434656
103.260000 9.185802
103.280000 8.939889
103.300000 8.780489
103.320000 8.739333
103.340000 8.759120
103.360000 8.780895
103.380000 8.749709
103.400000 8.704787
103.420000 8.554810
103.440000 8.314737
103.460000 8.082589
103.480000 7.693505
103.500000 7.431418
103.520000 7.199733
103.540000 6.779478
103.560000 6.370509
103.580000 5.883836
103.600000 5.340506
103.620000 4.679477
103.640000 3.764077
103.660000 2.977830
103.680000 2.350815
103.700000 1.731012
103.720000 1.139034
103.740000 0.657472
103.760000 0.362687
103.780000 0.056462
103.800000 -0.439720
103.820000 -1.024542
103.840000 -1.511691
103.860000 -1.987484
103.880000 -2.537074
103.900000 -3.041993
103.920000 -3.372291
103.940000 -3.587816
103.960000 -3.802026
103.980000 -4.082471
104.000000 -4.442918
104.020000 -4.803463
104.040000 -5.183220
104.060000 -5.726943
104.080000 -6.244801
104.100000 -6.677911
104.120000 -6.998770
104.140000 -7.263994
104.160000 -7.620142
104.180000 -7.950761
104.200000 -8.246610
104.220000 -8.600545
104.240000 -9.113867
104.260000 -9.605861
104.280000 -9.946927
104.300000 -10.295220
104.320000 -10.606430
104.340000 -10.897460
104.360000 -11.071570
104.380000 -11.239800
104.400000 -11.620410
104.420000 -12.024270
104.440000 -12.509250
104.460000 -12.804870
104.480000 -12.841020
104.500000 -12.908510
104.520000 -12.803710
104.540000 -12.495440
104.560000 -12.093520
104.580000 -11.709700
104.600000 -11.479270
104.620000 -11.145490
104.640000 -10.902630
104.660000 -10.878810
104.680000 -10.802030
104.700000 -10.544100
104.720000 -9.919537
104.740000 -9.089613
104.760000 -8.369602
104.780000 -7.600131
104.800000 -7.026805
104.820000 -6.599506
104.840000 -6.228417
104.860000 -6.009601
104.880000 -5.626637
104.900000 -5.266512
104.920000 -4.862823
104.940000 -4.196795
104.960000 -3.532545
104.980000 -2.796472
105.000000 -2.144994
105.020000 -1.690584
105.040000 -1.244017
105.060000 -0.993679
105.080000 -0.734925
105.100000 -0.380037
105.120000 0.002002
105.140000 0.495299
105.160000 1.029654
105.180000 1.665406
105.200000 2.113416
105.220000 2.467813
105.240000 2.878686
105.260000 3.083639
105.280000 3.269562
105.300000 3.558339
105.320000 3.865685
105.340000 4.308780
105.360000 4.659508
105.380000 5.050440
105.400000 5.399698
105.420000 5.550528
105.440000 5.658928
105.460000 5.717784
105.480000 5.765172
105.500000 5.921884
105.520000 6.113254
105.540000 6.385297
105.560000 6.647594
105.580000 6.915324
105.600000 7.142137
105.620000 7.209465
105.640000 7.236113
105.660000 7.262734
105.680000 7.322570
105.700000 7.420160
105.720000 7.547366
105.740000 7.816385
105.760000 8.142047
105.780000 8.309415
105.800000 8.487454
105.820000 8.558157
105.840000 8.586178
105.860000 8.585926
105.880000 8.568800
105.900000 8.640203
105.920000 8.803482
105.940000 8.984616
105.960000 9.123375
105.980000 9.257135
106.000000 9.308430
106.020000 9.300112
106.040000 9.238343
106.060000 9.120630
106.080000 9.121583
106.100000 9.198013
106.120000 9.322587
106.140000 9.516450
106.160000 9.671817
106.180000 9.749368
106.200000 9.707231
106.220000 9.494100
106.240000 9.260776
106.260000 9.067964
106.280000 8.845520
106.300000 8.700936
106.320000 8.684286
106.340000 8.703022
106.360000 8.769482
106.380000 8.715849
106.400000 8.622797
106.420000 8.500463
106.440000 8.323013
106.460000 8.037932
106.480000 7.687246
106.500000 7.483679
106.520000 7.248100
106.540000 6.866761
106.560000 6.399426
106.580000 5.905528
106.600000 5.404445
106.620000 4.627132
106.640000 3.737807
106.660000 2.954640
106.680000 2.328060
106.700000 1.752073
106.720000 1.138208
106.740000 0.654825
106.760000 0.390260
106.780000 0.067272
106.800000 -0.508168
106.820000 -1.049860
106.840000 -1.574412
106.860000 -2.003616
106.880000 -2.537032
106.900000 -3.060016
106.920000 -3.313280
106.940000 -3.553704
106.960000 -3.728046
106.980000 -4.073397
107.000000 -4.480909
107.020000 -4.754199
107.040000 -5.236699
107.060000 -5.706652
107.080000 -6.232240
107.100000 -6.661709
107.120000 -6.856258
107.140000 -7.217419
107.160000 -7.550139
107.180000 -7.889483
107.200000 -8.209235
107.220000 -8.598823
107.240000 -9.122871
107.260000 -9.644188
107.280000 -9.942684
107.300000 -10.257160
107.320000 -10.616900
107.340000 -10.859320
107.360000 -11.066480
107.380000 -11.242200
107.400000 -11.606940
107.420000 -12.031400
107.440000 -12.497710
107.460000 -12.859880
107.480000 -12.843620
107.500000 -12.874190
107.520000 -12.779920
107.540000 -12.500850
107.560000 -12.075630
107.580000 -11.617630
107.600000 -11.439430
107.620000 -11.180970
107.640000 -10.846730
107.660000 -10.754920
107.680000 -10.835830
107.700000 -10.577550
107.720000 -9.946115
107.740000 -9.182833
107.760000 -8.433443
107.780000 -7.716709
107.800000 -7.118499
107.820000 -6.697446
107.840000 -6.335501
107.860000 -6.064186
107.880000 -5.682846
107.900000 -5.356554
107.920000 -4.905029
107.940000 -4.222449
107.960000 -3.588349
107.980000 -2.852962
108.000000 -2.143523
108.020000 -1.639220
108.040000 -1.244843
108.060000 -0.959497
108.080000 -0.662471
108.100000 -0.348236
108.120000 0.005993
108.140000 0.490790
108.160000 1.052185
108.180000 1.617879
108.200000 2.076069
108.220000 2.520774
108.240000 2.868450
108.260000 3.089591
108.280000 3.337730
108.300000 3.588489
108.320000 3.882433
108.340000 4.298823
108.360000 4.661132
108.380000 5.036661
108.400000 5.363947
108.420000 5.554029
108.440000 5.707184
108.460000 5.745007
108.480000 5.790154
108.500000 5.958040
108.520000 6.131612
108.540000 6.380214
108.560000 6.650059
108.580000 6.935027
108.600000 7.137306
108.620000 7.252427
108.640000 7.271234
108.660000 7.332513
108.680000 7.351305
108.700000 7.412080
108.720000 7.581535
108.740000 7.797494
108.760000 8.064217
108.780000 8.252352
108.800000 8.446676
108.820000 8.527770
108.840000 8.540219
108.860000 8.557625
108.880000 8.550679
108.900000 8.618722
108.920000 8.745326
108.940000 8.936360
108.960000 9.141117
108.980000 9.239645
109.000000 9.356083
109.020000 9.387283
109.040000 9.322741
109.060000 9.242712
109.080000 9.253032
109.100000 9.285786
109.120000 9.420835
109.140000 9.617288
109.160000 9.753415
109.180000 9.846131
109.200000 9.770079
109.220000 9.608242
109.240000 9.391176
109.260000 9.094864
109.280000 8.903648
109.300000 8.764805
109.320000 8.693850
109.340000 8.705879
109.360000 8.717824
109.380000 8.732275
109.400000 8.662594
109.420000 8.496739
109.440000 8.315283
109.460000 8.085166
109.480000 7.708601
109.500000 7.485457
109.520000 7.220514
109.540000 6.792137
109.560000 6.370201
109.580000 5.889984
109.600000 5.352745
109.620000 4.601254
109.640000 3.720022
109.660000 3.009603
109.680000 2.370714
109.700000 1.698972
109.720000 1.138404
109.740000 0.662807
109.760000 0.391380
109.780000 0.020487
109.800000 -0.528809
109.820000 -1.012905
109.840000 -1.520051
109.860000 -2.035543
109.880000 -2.545070
109.900000 -3.020022
109.920000 -3.315745
109.940000 -3.541087
109.960000 -3.752594
109.980000 -4.014989
110.000000 -4.399424
110.020000 -4.722481
110.040000 -5.145579
110.060000 -5.648846
110.080000 -6.203379
110.100000 -6.620624
110.120000 -6.896840
110.140000 -7.220976
110.160000 -7.591841
110.180000 -7.923371
110.200000 -8.205118
110.220000 -8.592872
110.240000 -9.165161
110.260000 -9.650518
110.280000 -9.965075
110.300000 -10.309710
110.320000 -10.618230
110.340000 -10.935510
110.360000 -11.105410
110.380000 -11.266790
110.400000 -11.657050
110.420000 -12.056550
110.440000 -12.522360
110.460000 -12.777010
110.480000 -12.751650
110.500000 -12.863880
110.520000 -12.742010
110.540000 -12.433710
110.560000 -11.992650
110.580000 -11.635230
110.600000 -11.510360
110.620000 -11.207270
110.640000 -10.899760
110.660000 -10.883510
110.680000 -10.923620
110.700000 -10.643650
110.720000 -9.997311
110.740000 -9.112691
110.760000 -8.512926
110.780000 -7.799917
110.800000 -7.146226
110.820000 -6.721518
110.840000 -6.391921
110.860000 -6.170569
110.880000 -5.721593
110.900000 -5.362071
110.920000 -4.960356
110.940000 -4.231677
110.960000 -3.565775
110.980000 -2.845176
111.000000 -2.176389
111.020000 -1.676427
111.040000 -1.262754
111.060000 -1.003383
111.080000 -0.693307
111.100000 -0.279353
111.120000 0.065368
111.140000 0.504443
111.160000 1.160417
111.180000 1.708775
111.200000 2.094231
111.220000 2.496170
111.240000 2.903472
111.260000 3.099309
111.280000 3.293438
111.300000 3.597017
111.320000 3.980233
111.340000 4.373419
111.360000 4.708436
111.380000 5.137317
111.400000 5.434818
111.420000 5.545095
111.440000 5.679471
111.460000 5.729659
111.480000 5.767454
111.500000 5.929473
111.520000 6.146834
111.540000 6.400841
111.560000 6.660295
111.580000 6.962936
111.600000 7.165999
111.620000 7.256460
111.640000 7.270982
111.660000 7.348546
111.680000 7.445212
111.700000 7.475725
111.720000 7.677486
111.740000 8.001271
111.760000 8.236878
111.780000 8.402916
111.800000 8.564697
111.820000 8.643130
111.840000 8.654094
111.860000 8.585926
111.880000 8.601400
111.900000 8.678236
111.920000 8.775868
111.940000 8.971173
111.960000 9.106879
111.980000 9.188253
112.000000 9.268016
112.020000 9.284694
112.040000 9.218500
112.060000 9.116037
112.080000 9.137126
112.100000 9.270102
112.120000 9.423887
112.140000 9.556471
112.160000 9.730673
112.180000 9.858566
112.200000 9.720815
112.220000 9.470785
112.240000 9.264025
112.260000 9.057671
112.280000 8.808663
112.300000 8.654262
112.320000 8.639685
112.340000 8.698401
112.360000 8.729096
112.380000 8.670800
112.400000 8.597157
112.420000 8.468200
112.440000 8.254452
112.460000 7.967999
112.480000 7.646818
112.500000 7.423829
112.520000 7.190743
112.540000 6.796072
112.560000 6.314020
112.580000 5.875112
112.600000 5.290094
112.620000 4.528129
112.640000 3.695124
112.660000 2.912854
112.680000 2.346474
112.700000 1.745029
112.720000 1.155376
112.740000 0.748914
112.760000 0.457756
112.780000 0.054347
112.800000 -0.476661
112.820000 -1.064284
112.840000 -1.567173
112.860000 -2.055988
112.880000 -2.629538
112.900000 -3.080250
112.920000 -3.351664
112.940000 -3.580913
112.960000 -3.767438
112.980000 -4.134928
113.000000 -4.457243
113.020000 -4.804205
113.040000 -5.284534
113.060000 -5.751953
113.080000 -6.311079
113.100000 -6.650843
113.120000 -6.894081
113.140000 -7.256096
113.160000 -7.558947
113.180000 -7.889048
113.200000 -8.190457
113.220000 -8.587200
113.240000 -9.172583
113.260000 -9.603369
113.280000 -9.900800
113.300000 -10.248710
113.320000 -10.557450
113.340000 -10.828030
113.360000 -10.991100
113.380000 -11.183870
113.400000 -11.596440
113.420000 -11.980660
113.440000 -12.460740
113.460000 -12.782410
113.480000 -12.779430
113.500000 -12.842450
113.520000 -12.696980
113.540000 -12.440130
113.560000 -11.985240
113.580000 -11.582070
113.600000 -11.456010
113.620000 -11.159760
113.640000 -10.824730
113.660000 -10.760470
113.680000 -10.811100
113.700000 -10.567070
113.720000 -9.932756
113.740000 -9.231383
113.760000 -8.549209
113.780000 -7.771980
113.800000 -7.207841
113.820000 -6.797388
113.840000 -6.501469
113.860000 -6.155222
113.880000 -5.723946
113.900000 -5.456734
113.920000 -4.966462
113.940000 -4.250694
113.960000 -3.660508
113.980000 -2.936296
114.000000 -2.243129
114.020000 -1.738336
114.040000 -1.331286
114.060000 -1.063318
114.080000 -0.694455
114.100000 -0.336599
114.120000 -0.015642
114.140000 0.520099
114.160000 1.098564
114.180000 1.646194
114.200000 2.108207
114.220000 2.534217
114.240000 2.933411
114.260000 3.132133
114.280000 3.361340
114.300000 3.672033
114.320000 3.966201
114.340000 4.342934
114.360000 4.722033
114.380000 5.120807
114.400000 5.374478
114.420000 5.561423
114.440000 5.775828
114.460000 5.788459
114.480000 5.828159
114.500000 6.032874
114.520000 6.212257
114.540000 6.461965
114.560000 6.714264
114.580000 6.987344
114.600000 7.231478
114.620000 7.285517
114.640000 7.321940
114.660000 7.434779
114.680000 7.436726
114.700000 7.502696
114.720000 7.699807
114.740000 7.918077
114.760000 8.156779
114.780000 8.351061
114.800000 8.529408
114.820000 8.600167
114.840000 8.608289
114.860000 8.598305
114.880000 8.610278
114.900000 8.639013
114.920000 8.725203
114.940000 8.935240
114.960000 9.049157
114.980000 9.129593
115.000000 9.229941
115.020000 9.253130
115.040000 9.172429
115.060000 9.075904
115.080000 9.098547
115.100000 9.178646
115.120000 9.299565
115.140000 9.441756
115.160000 9.630185
115.180000 9.751440
115.200000 9.632089
115.220000 9.436168
115.240000 9.262415
115.260000 9.042870
115.280000 8.824809
115.300000 8.689215
115.320000 8.662398
115.340000 8.697085
115.360000 8.742890
115.380000 8.726492
115.400000 8.673209
115.420000 8.549013
115.440000 8.343066
115.460000 8.128184
115.480000 7.777904
115.500000 7.517959
115.520000 7.289116
115.540000 6.903786
115.560000 6.418499
115.580000 5.950520
115.600000 5.406980
115.620000 4.678469
115.640000 3.822163
115.660000 3.027556
115.680000 2.408005
115.700000 1.792263
115.720000 1.175050
115.740000 0.688069
115.760000 0.377825
115.780000 0.010250
115.800000 -0.534803
115.820000 -1.065726
115.840000 -1.573264
115.860000 -2.054084
115.880000 -2.573791
115.900000 -3.070658
115.920000 -3.357811
115.940000 -3.603934
115.960000 -3.844316
115.980000 -4.114889
116.000000 -4.467354
116.020000 -4.837673
116.040000 -5.227681
116.060000 -5.740092
116.080000 -6.256004
116.100000 -6.659203
116.120000 -6.974559
116.140000 -7.234363
116.160000 -7.606797
116.180000 -7.933411
116.200000 -8.233797
116.220000 -8.616131
116.240000 -9.134326
116.260000 -9.597711
116.280000 -9.899666
116.300000 -10.209620
116.320000 -10.540700
116.340000 -10.781230
116.360000 -10.950240
116.380000 -11.161380
116.400000 -11.533510
116.420000 -11.922770
116.440000 -12.369290
116.460000 -12.684740
116.480000 -12.806500
116.500000 -12.797310
116.520000 -12.711260
116.540000 -12.524150
116.560000 -12.091090
116.580000 -11.723110
116.600000 -11.563910
116.620000 -11.321440
116.640000 -11.041210
116.660000 -10.951490
116.680000 -10.999460
116.700000 -10.757130
116.720000 -10.061190
116.740000 -9.254237
116.760000 -8.560776
116.780000 -7.833833
116.800000 -7.147136
116.820000 -6.684255
116.840000 -6.370145
116.860000 -6.055714
116.880000 -5.662933
116.900000 -5.357520
116.920000 -4.901150
116.940000 -4.233106
116.960000 -3.547669
116.980000 -2.844616
117.000000 -2.166237
117.020000 -1.563882
117.040000 -1.195747
117.060000 -0.890684
117.080000 -0.557642
117.100000 -0.195277
117.120000 0.149374
117.140000 0.599260
117.160000 1.232744
117.180000 1.752115
117.200000 2.169598
117.220000 2.621444
117.240000 2.949109
117.260000 3.176103
117.280000 3.387904
117.300000 3.659486
117.320000 4.004445
117.340000 4.334420
117.360000 4.736078
117.380000 5.140104
117.400000 5.391380
117.420000 5.559546
117.440000 5.725038
117.460000 5.756896
117.480000 5.771291
117.500000 5.894143
117.520000 6.137507
117.540000 6.360805
117.560000 6.562804
117.580000 6.891589
117.600000 7.106344
117.620000 7.173770
117.640000 7.208513
117.660000 7.269203
117.680000 7.344500
117.700000 7.400023
117.720000 7.580960
117.740000 7.881725
117.760000 8.138868
117.780000 8.371240
117.800000 8.573463
117.820000 8.665479
117.840000 8.670898
117.860000 8.675856
117.880000 8.687674
117.900000 8.713119
117.920000 8.802698
117.940000 9.008211
117.960000 9.167136
117.980000 9.239827
118.000000 9.323413
118.020000 9.345833
118.040000 9.302870
118.060000 9.162963
118.080000 9.157319
118.100000 9.259138
118.120000 9.361068
118.140000 9.489129
118.160000 9.631865
118.180000 9.724568
118.200000 9.620453
118.220000 9.391049
118.240000 9.214313
118.260000 8.971047
118.280000 8.739823
118.300000 8.602548
118.320000 8.577874
118.340000 8.626354
118.360000 8.632305
118.380000 8.596036
118.400000 8.560874
118.420000 8.418530
118.440000 8.187180
118.460000 7.984803
118.480000 7.647896
118.500000 7.446906
118.520000 7.194481
118.540000 6.810453
118.560000 6.439028
118.580000 5.922542
118.600000 5.336879
118.620000 4.680457
118.640000 3.801802
118.660000 3.010094
118.680000 2.384003
118.700000 1.785163
118.720000 1.248190
118.740000 0.736633
118.760000 0.424694
118.780000 0.140076
118.800000 -0.421263
118.820000 -1.001899
118.840000 -1.509437
118.860000 -1.987428
118.880000 -2.491283
118.900000 -3.039949
118.920000 -3.324651
118.940000 -3.531621
118.960000 -3.784270
118.980000 -4.077556
119.000000 -4.450228
119.020000 -4.801040
119.040000 -5.264201
119.060000 -5.776963
119.080000 -6.243275
119.100000 -6.646432
119.120000 -6.962908
119.140000 -7.223931
119.160000 -7.538586
119.180000 -7.878476
119.200000 -8.209571
119.220000 -8.627096
119.240000 -9.091433
119.260000 -9.593790
119.280000 -9.945233
119.300000 -10.218200
119.320000 -10.487350
119.340000 -10.748520
119.360000 -10.944760
119.380000 -11.106770
119.400000 -11.441100
119.420000 -11.879250
119.440000 -12.326100
119.460000 -12.715350
119.480000 -12.929310
119.500000 -12.890380
119.520000 -12.748480
119.540000 -12.508440
119.560000 -12.170890
119.580000 -11.740690
119.600000 -11.410100
119.620000 -11.253160
119.640000 -10.950110
119.660000 -10.755080
119.680000 -10.881110
119.700000 -10.693980
119.720000 -10.144010
119.740000 -9.324337
119.760000 -8.431483
119.780000 -7.833819
119.800000 -7.211874
119.820000 -6.529644
119.840000 -6.304414
119.860000 -6.073722
119.880000 -5.537085
119.900000 -5.253489
119.920000 -4.916596
119.940000 -4.228975
119.960000 -3.528498
119.980000 -2.870270
120.000000 -2.200685
120.020000 -1.583879
120.040000 -1.198590
120.060000 -0.871934
120.080000 -0.580776
120.100000 -0.306548
120.120000 0.197462
120.140000 0.521961
120.160000 1.019907
120.180000 1.797318
120.200000 2.084527
120.220000 2.517049
120.240000 2.961460
120.260000 3.160420
120.280000 3.333123
120.300000 3.603024
120.320000 3.942200
120.340000 4.273071
120.360000 4.642158
120.380000 5.046855
120.400000 5.419359
120.420000 5.493142
120.440000 5.725122
120.460000 5.840930
120.480000 5.693951
120.500000 5.937903
120.520000 6.083412
120.540000 6.322436
120.560000 6.544207
120.580000 6.771664
120.600000 7.132391
120.620000 7.178630
120.640000 7.210725
120.660000 7.236786
120.680000 7.422694
120.700000 7.449357
120.720000 7.439316
120.740000 7.894118
120.760000 8.146332
120.780000 8.301882
120.800000 8.492271
120.820000 8.690167
120.840000 8.698737
120.860000 8.611468
120.880000 8.644936
120.900000 8.625051
120.920000 8.788303
120.940000 8.811240
120.960000 8.999067
120.980000 9.240821
121.000000 9.127870
121.020000 9.272847
121.040000 9.312701
121.060000 9.149323
121.080000 9.151956
121.100000 9.292648
121.120000 9.392464
121.140000 9.539695
121.160000 9.807047
121.180000 9.791770
121.200000 9.862333
121.220000 9.658416
121.240000 9.319170
121.260000 9.221413
121.280000 9.007693
121.300000 8.688795
121.320000 8.662034
121.340000 8.788233
121.360000 8.697267
121.380000 8.676276
121.400000 8.681121
121.420000 8.468648
121.440000 8.320898
121.460000 8.111212
121.480000 7.653372
121.500000 7.464046
121.520000 7.231030
121.540000 6.736795
121.560000 6.362569
121.580000 5.913958
121.600000 5.267926
121.620000 4.677306
121.640000 3.808411
121.660000 2.998611
121.680000 2.311788
121.700000 1.740842
121.720000 1.234131
121.740000 0.602747
121.760000 0.305119
121.780000 -0.001876
121.800000 -0.437633
121.820000 -1.038322
121.840000 -1.634151
121.860000 -1.973228
121.880000 -2.482125
121.900000 -2.991763
121.920000 -3.344536
121.940000 -3.587494
121.960000 -3.654472
121.980000 -3.977796
122.000000 -4.483472
122.020000 -4.709234
122.040000 -5.091190
122.060000 -5.736759
122.080000 -6.154746
122.100000 -6.669467
122.120000 -6.988744
122.140000 -7.151491
122.160000 -7.619344
122.180000 -7.954920
122.200000 -8.288550
122.220000 -8.616887
122.240000 -9.097595
122.260000 -9.697205
122.280000 -10.056590
122.300000 -10.368400
122.320000 -10.567920
122.340000 -10.921130
122.360000 -11.207410
122.380000 -11.268970
122.400000 -11.603320
122.420000 -12.076050
122.440000 -12.519390
122.460000 -12.799990
122.480000 -12.817800
122.500000 -12.783950
122.520000 -12.862900
122.540000 -12.462770
122.560000 -12.008470
122.580000 -11.672660
122.600000 -11.386110
122.620000 -11.276030
122.640000 -10.929640
122.660000 -10.742150
122.680000 -10.927150
122.700000 -10.732280
122.720000 -9.992102
122.740000 -9.124874
122.760000 -8.416023
122.780000 -7.817099
122.800000 -7.125165
122.820000 -6.625763
122.840000 -6.368507
122.860000 -6.050925
122.880000 -5.705910
122.900000 -5.342438
122.920000 -4.895157
122.940000 -4.290575
122.960000 -3.477120
122.980000 -2.844196
123.000000 -2.169037
123.020000 -1.482592
123.040000 -1.173888
123.060000 -0.936503
123.080000 -0.486463
123.100000 -0.208524
123.120000 0.127795
123.140000 0.577401
123.160000 1.142437
123.180000 1.852645
123.200000 2.050541
123.220000 2.490023
123.240000 3.014001
123.260000 3.018342
123.280000 3.245966
123.300000 3.556729
123.320000 3.877420
123.340000 4.280647
123.360000 4.617582
123.380000 5.117054
123.400000 5.401729
123.420000 5.550206
123.440000 5.761097
123.460000 5.811285
123.480000 5.823286
123.500000 5.926575
123.520000 6.207146
123.540000 6.478265
123.560000 6.512952
123.580000 6.916305
123.600000 7.222334
123.620000 7.061169
123.640000 7.187354
123.660000 7.241295
123.680000 7.280910
123.700000 7.372646
123.720000 7.433547
123.740000 7.850077
123.760000 8.184169
123.780000 8.235800
123.800000 8.551562
123.820000 8.732247
123.840000 8.588461
123.860000 8.650537
123.880000 8.696020
123.900000 8.691049
123.920000 8.800331
123.940000 8.974701
123.960000 9.217464
123.980000 9.272063
124.000000 9.277916
124.020000 9.407713
124.040000 9.372383
124.060000 9.192230
124.080000 9.135502
124.100000 9.371361
124.120000 9.466262
124.140000 9.511380
124.160000 9.728433
124.180000 9.854491
124.200000 9.758064
124.220000 9.465071
124.240000 9.269808
124.260000 9.095761
124.280000 8.825608
124.300000 8.597031
124.320000 8.641323
124.340000 8.715219
124.360000 8.632571
124.380000 8.659584
124.400000 8.663869
124.420000 8.455429
124.440000 8.270318
124.460000 8.042189
124.480000 7.704526
124.500000 7.481368
124.520000 7.170382
124.540000 6.808535
124.560000 6.423078
124.580000 5.828285
124.600000 5.271483
124.620000 4.638629
124.640000 3.678614
124.660000 2.886108
124.680000 2.312782
124.700000 1.705582
124.720000 1.151707
124.740000 0.609847
124.760000 0.337271
124.780000 0.113217
124.800000 -0.499038
124.820000 -1.092081
124.840000 -1.521802
124.860000 -1.964224
124.880000 -2.512820
124.900000 -3.020792
124.920000 -3.281213
124.940000 -3.465987
124.960000 -3.716395
124.980000 -4.057111
125.000000 -4.409534
125.020000 -4.730673
125.040000 -5.254903
125.060000 -5.757162
125.080000 -6.208995
125.100000 -6.689954
125.120000 -6.977415
125.140000 -7.241253
125.160000 -7.558863
125.180000 -7.956657
125.200000 -8.320884
125.220000 -8.615977
125.240000 -9.120280
125.260000 -9.623295
125.280000 -10.039990
125.300000 -10.269140
125.320000 -10.458290
125.340000 -10.875980
125.360000 -11.080430
125.380000 -11.160320
125.400000 -11.530480
125.420000 -12.022770
125.440000 -12.516470
125.460000 -12.788320
125.480000 -12.813400
125.500000 -12.891010
125.520000 -12.803560
125.540000 -12.463280
125.560000 -12.113320
125.580000 -11.618190
125.600000 -11.411930
125.620000 -11.217830
125.640000 -10.841500
125.660000 -10.833580
125.680000 -10.745620
125.700000 -10.652560
125.720000 -10.043490
125.740000 -8.992220
125.760000 -8.348891
125.780000 -7.698141
125.800000 -7.021414
125.820000 -6.543997
125.840000 -6.224846
125.860000 -6.002221
125.880000 -5.647446
125.900000 -5.226672
125.920000 -4.947123
125.940000 -4.286949
125.960000 -3.531103
125.980000 -2.952022
126.000000 -2.256040
126.020000 -1.636952
126.040000 -1.249324
126.060000 -1.030004
126.080000 -0.669711
126.100000 -0.251935
126.120000 0.052751
126.140000 0.411853
126.160000 1.087711
126.180000 1.696256
126.200000 1.976225
126.220000 2.465265
126.240000 2.851744
126.260000 3.029082
126.280000 3.212750
126.300000 3.476770
126.320000 3.922511
126.340000 4.219172
126.360000 4.568990
126.380000 5.148940
126.400000 5.407386
126.420000 5.503379
126.440000 5.809661
126.460000 5.877885
126.480000 5.860885
126.500000 6.029751
126.520000 6.232520
126.540000 6.556012
126.560000 6.645718
126.580000 6.930686
126.600000 7.304366
126.620000 7.206608
126.640000 7.198640
126.660000 7.307783
126.680000 7.398791
126.700000 7.382113
126.720000 7.494882
126.740000 7.941197
126.760000 8.114531
126.780000 8.251203
126.800000 8.538230
126.820000 8.602534
126.840000 8.602548
126.860000 8.525599
126.880000 8.557149
126.900000 8.698485
126.920000 8.624561
126.940000 8.839611
126.960000 9.186376
126.980000 9.132715
127.000000 9.222127
127.020000 9.340427
127.040000 9.323147
127.060000 9.225852
127.080000 9.095634
127.100000 9.375646
127.120000 9.535984
127.140000 9.536026
127.160000 9.777780
127.180000 9.993362
127.200000 9.849800
127.220000 9.590065
127.240000 9.368476
127.260000 9.204203
127.280000 8.924709
127.300000 8.632795
127.320000 8.722123
127.340000 8.720764
127.360000 8.632571
127.380000 8.665549
127.400000 8.641281
127.420000 8.514775
127.440000 8.218996
127.460000 8.015457
127.480000 7.752978
127.500000 7.426713
127.520000 7.144812
127.540000 6.815606
127.560000 6.415250
127.580000 5.841056
127.600000 5.313619
127.620000 4.684630
127.640000 3.786538
127.660000 2.959471
127.680000 2.372198
127.700000 1.799979
127.720000 1.158022
127.740000 0.642446
127.760000 0.391884
127.780000 0.102519
127.800000 -0.516304
127.820000 -1.096464
127.840000 -1.473434
127.860000 -1.948302
127.880000 -2.560530
127.900000 -3.028830
127.920000 -3.262784
127.940000 -3.500744
127.960000 -3.813411
127.980000 -4.098337
128.000000 -4.394592
128.020000 -4.744845
128.040000 -5.258306
128.060000 -5.742710
128.080000 -6.199976
128.100000 -6.665448
128.120000 -7.000731
128.140000 -7.288416
128.160000 -7.593998
128.180000 -7.969610
128.200000 -8.314905
128.220000 -8.661418
128.240000 -9.135726
128.260000 -9.675626
128.280000 -10.013420
128.300000 -10.270660
128.320000 -10.617870
128.340000 -10.915550
128.360000 -11.120540
128.380000 -11.249100
128.400000 -11.652430
128.420000 -12.094500
128.440000 -12.519920
128.460000 -12.747940
128.480000 -12.741300
128.500000 -12.859180
128.520000 -12.687460
128.540000 -12.404450
128.560000 -12.002990
128.580000 -11.566770
128.600000 -11.460440
128.620000 -11.179340
128.640000 -10.887200
128.660000 -10.829660
128.680000 -10.783730
128.700000 -10.539300
128.720000 -9.915448
128.740000 -9.039719
128.760000 -8.322537
128.780000 -7.710015
128.800000 -7.105252
128.820000 -6.679732
128.840000 -6.344001
128.860000 -6.171185
128.880000 -5.803681
128.900000 -5.465934
128.920000 -5.003137
128.940000 -4.328314
128.960000 -3.700067
128.980000 -2.880660
129.000000 -2.187802
129.020000 -1.750645
129.040000 -1.216234
129.060000 -0.981230
129.080000 -0.632602
129.100000 -0.214433
129.120000 0.080813
129.140000 0.643819
129.160000 1.214218
129.180000 1.754132
129.200000 2.206258
129.220000 2.577292
129.240000 2.883895
129.260000 3.157731
129.280000 3.278272
129.300000 3.587732
129.320000 3.915439
129.340000 4.279681
129.360000 4.687725
129.380000 5.107756
129.400000 5.409458
129.420000 5.533934
129.440000 5.770913
129.460000 5.821591
129.480000 5.827039
129.500000 6.018885
129.520000 6.225098
129.540000 6.486625
129.560000 6.635481
129.580000 6.976239
129.600000 7.182116
129.620000 7.169373
129.640000 7.202113
129.660000 7.293289
129.680000 7.364818
129.700000 7.376553
129.720000 7.578342
129.740000 7.921760
129.760000 8.175599
129.780000 8.288466
129.800000 8.575213
129.820000 8.654556
129.840000 8.613191
129.860000 8.634140
129.880000 8.586472
129.900000 8.798581
129.920000 8.741937
129.940000 8.931137
129.960000 9.252668
129.980000 9.143232
130.000000 9.265397
130.020000 9.296821
130.040000 9.233694
130.060000 9.131035
130.080000 9.053064
130.100000 9.269500
130.120000 9.423999
130.140000 9.443044
130.160000 9.677278
130.180000 9.822311
130.200000 9.640155
130.220000 9.423299
130.240000 9.172877
130.260000 9.074615
130.280000 8.781665
130.300000 8.536550
130.320000 8.732233
130.340000 8.673083
130.360000 8.655285
130.380000 8.690573
130.400000 8.601764
130.420000 8.519858
130.440000 8.194630
130.460000 7.991497
130.480000 7.801079
130.500000 7.424991
130.520000 7.126551
130.540000 6.893423
130.560000 6.382818
130.580000 5.823118
130.600000 5.249078
130.620000 4.510330
130.640000 3.736392
130.660000 2.798727
130.680000 2.213386
130.700000 1.749665
130.720000 1.082712
130.740000 0.613305
130.760000 0.376060
130.780000 0.058618
130.800000 -0.549842
130.820000 -1.101365
130.840000 -1.537808
130.860000 -1.997538
130.880000 -2.610914
130.900000 -3.079326
130.920000 -3.214529
130.940000 -3.516483
130.960000 -3.785320
130.980000 -4.067936
131.000000 -4.387717
131.020000 -4.720227
131.040000 -5.278723
131.060000 -5.728385
131.080000 -6.169687
131.100000 -6.592981
131.120000 -6.925043
131.140000 -7.201245
131.160000 -7.505076
131.180000 -7.849335
131.200000 -8.178358
131.220000 -8.578630
131.240000 -9.044830
131.260000 -9.595751
131.280000 -9.863873
131.300000 -10.145440
131.320000 -10.538390
131.340000 -10.744630
131.360000 -10.968780
131.380000 -11.145620
131.400000 -11.509370
131.420000 -12.036650
131.440000 -12.383970
131.460000 -12.738470
131.480000 -12.874580
131.500000 -12.854380
131.520000 -12.752120
131.540000 -12.482920
131.560000 -12.121640
131.580000 -11.731190
131.600000 -11.445470
131.620000 -11.193300
131.640000 -10.923610
131.660000 -10.823790
131.680000 -10.880270
131.700000 -10.604160
131.720000 -9.996037
131.740000 -9.098155
131.760000 -8.522617
131.780000 -7.822392
131.800000 -7.123162
131.820000 -6.734261
131.840000 -6.361099
131.860000 -6.162027
131.880000 -5.693111
131.900000 -5.324150
131.920000 -5.023330
131.940000 -4.222771
131.960000 -3.568030
131.980000 -2.902436
132.000000 -2.163898
132.020000 -1.678766
132.040000 -1.156580
132.060000 -0.906018
132.080000 -0.657542
132.100000 -0.151418
132.120000 0.102659
132.140000 0.514806
132.160000 1.176017
132.180000 1.673164
132.200000 2.126075
132.220000 2.477686
132.240000 2.891499
132.260000 3.138785
132.280000 3.210594
132.300000 3.602072
132.320000 3.896437
132.340000 4.233218
132.360000 4.675570
132.380000 5.034924
132.400000 5.426164
132.420000 5.544465
132.440000 5.721313
132.460000 5.911339
132.480000 5.793809
132.500000 5.991620
132.520000 6.231078
132.540000 6.405784
132.560000 6.654022
132.580000 6.898282
132.600000 7.113430
132.620000 7.223608
132.640000 7.128974
132.660000 7.332191
132.680000 7.345690
132.700000 7.311732
132.720000 7.561958
132.740000 7.876277
132.760000 8.115385
132.780000 8.186494
132.800000 8.487398
132.820000 8.647163
132.840000 8.483435
132.860000 8.484598
132.880000 8.602198
132.900000 8.565355
132.920000 8.594944
132.940000 8.859076
132.960000 9.032157
132.980000 9.128808
133.000000 9.154729
133.020000 9.258620
133.040000 9.335554
133.060000 9.090271
133.080000 9.130475
133.100000 9.386834
133.120000 9.464637
133.140000 9.518452
133.160000 9.787359
133.180000 9.884738
133.200000 9.764001
133.220000 9.479635
133.240000 9.266630
133.260000 9.223163
133.280000 8.754835
133.300000 8.599845
133.320000 8.744150
133.340000 8.652190
133.360000 8.666795
133.380000 8.619296
133.400000 8.657735
133.420000 8.536018
133.440000 8.176257
133.460000 8.084297
133.480000 7.805812
133.500000 7.424725
133.520000 7.236660
133.540000 6.899613
133.560000 6.468365
133.580000 5.933072
133.600000 5.254105
133.620000 4.769364
133.640000 3.812683
133.660000 2.819018
133.680000 2.408033
133.700000 1.739246
133.720000 1.144033
133.740000 0.586559
133.760000 0.302725
133.780000 0.115486
133.800000 -0.604147
133.820000 -1.165752
133.840000 -1.532164
133.860000 -2.097732
133.880000 -2.677850
133.900000 -3.130621
133.920000 -3.438835
133.940000 -3.642780
133.960000 -3.979435
133.980000 -4.211848
134.000000 -4.429167
134.020000 -4.976096
134.040000 -5.312023
134.060000 -5.731046
134.080000 -6.272962
134.100000 -6.669537
134.120000 -7.044533
134.140000 -7.142263
134.160000 -7.536108
134.180000 -7.967565
134.200000 -8.153530
134.220000 -8.502620
134.240000 -9.024063
134.260000 -9.557143
134.280000 -9.831637
134.300000 -10.087930
134.320000 -10.473010
134.340000 -10.779790
134.360000 -10.918520
134.380000 -11.077460
134.400000 -11.517310
134.420000 -11.952250
134.440000 -12.315970
134.460000 -12.751830
134.480000 -12.845430
134.500000 -12.815470
134.520000 -12.810770
134.540000 -12.564030
134.560000 -12.193470
134.580000 -11.741670
134.600000 -11.508390
134.620000 -11.407940
134.640000 -11.022500
134.660000 -10.847290
134.680000 -10.958610
134.700000 -10.701820
134.720000 -10.125820
134.740000 -9.295911
134.760000 -8.536816
134.780000 -7.861294
134.800000 -7.160579
134.820000 -6.772882
134.840000 -6.415026
134.860000 -6.115200
134.880000 -5.778839
134.900000 -5.433488
134.920000 -5.116298
134.940000 -4.389705
134.960000 -3.726226
134.980000 -3.092097
135.000000 -2.284159
135.020000 -1.749399
135.040000 -1.300675
135.060000 -0.907026
135.080000 -0.627449
135.100000 -0.226771
135.120000 0.155871
135.140000 0.648048
135.160000 1.196574
135.180000 1.783693
135.200000 2.270338
135.220000 2.669574
135.240000 3.109658
135.260000 3.221754
135.280000 3.475173
135.300000 3.829893
135.320000 3.930941
135.340000 4.399844
135.360000 4.784964
135.380000 5.039405
135.400000 5.521331
135.420000 5.570385
135.440000 5.706470
135.460000 5.919181
135.480000 5.794313
135.500000 5.961849
135.520000 6.186687
135.540000 6.333428
135.560000 6.622626
135.580000 6.891197
135.600000 7.090576
135.620000 7.181276
135.640000 7.270562
135.660000 7.294704
135.680000 7.266641
135.700000 7.425929
135.720000 7.558191
135.740000 7.726595
135.760000 8.086748
135.780000 8.165069
135.800000 8.467752
135.820000 8.555413
135.840000 8.430363
135.860000 8.594524
135.880000 8.542221
135.900000 8.538945
135.920000 8.745466
135.940000 8.805611
135.960000 9.029777
135.980000 9.195941
136.000000 9.171029
136.020000 9.326676
136.040000 9.276404
136.060000 9.126470
136.080000 9.211288
136.100000 9.302926
136.120000 9.372005
136.140000 9.513019
136.160000 9.754857
136.180000 9.763987
136.200000 9.621825
136.220000 9.500640
136.240000 9.301204
136.260000 9.047351
136.280000 8.761654
136.300000 8.693458
136.320000 8.709338
136.340000 8.656993
136.360000 8.634406
136.380000 8.731127
136.400000 8.689313
136.420000 8.438274
136.440000 8.250069
136.460000 8.111884
136.480000 7.735067
136.500000 7.393959
136.520000 7.211033
136.540000 6.853766
136.560000 6.415670
136.580000 5.815836
136.600000 5.305231
136.620000 4.720395
136.640000 3.643508
136.660000 2.931605
136.680000 2.405960
136.700000 1.693875
136.720000 1.150559
136.740000 0.642713
136.760000 0.416096
136.780000 0.113385
136.800000 -0.607718
136.820000 -1.024528
136.840000 -1.423512
136.860000 -2.128862
136.880000 -2.603898
136.900000 -3.050717
136.920000 -3.337828
136.940000 -3.626858
136.960000 -3.979239
136.980000 -4.072221
137.000000 -4.470225
137.020000 -4.979177
137.040000 -5.298412
137.060000 -5.779469
137.080000 -6.235083
137.100000 -6.700079
137.120000 -6.988758
137.140000 -7.120432
137.160000 -7.567559
137.180000 -7.902408
137.200000 -8.104504
137.220000 -8.568856
137.240000 -9.015843
137.260000 -9.483794
137.280000 -9.864475
137.300000 -10.056000
137.320000 -10.475920
137.340000 -10.671550
137.360000 -10.821790
137.380000 -11.173080
137.400000 -11.437940
137.420000 -11.845450
137.440000 -12.329070
137.460000 -12.735670
137.480000 -12.888220
137.500000 -12.781470
137.520000 -12.756390
137.540000 -12.578030
137.560000 -12.167760
137.580000 -11.688720
137.600000 -11.462670
137.620000 -11.310800
137.640000 -10.955590
137.660000 -10.795460
137.680000 -10.803750
137.700000 -10.661080
137.720000 -10.096860
137.740000 -9.250176
137.760000 -8.512870
137.780000 -7.823919
137.800000 -7.156714
137.820000 -6.705610
137.840000 -6.338792
137.860000 -6.001255
137.880000 -5.706134
137.900000 -5.324668
137.920000 -4.914355
137.940000 -4.283980
137.960000 -3.624953
137.980000 -2.957189
138.000000 -2.217797
138.020000 -1.628059
138.040000 -1.191112
138.060000 -0.879257
138.080000 -0.527143
138.100000 -0.130665
138.120000 0.157286
138.140000 0.640206
138.160000 1.160781
138.180000 1.709685
138.200000 2.213680
138.220000 2.557575
138.240000 2.941995
138.260000 3.196520
138.280000 3.368538
138.300000 3.633818
138.320000 3.889365
138.340000 4.229409
138.360000 4.635618
138.380000 4.964823
138.400000 5.276959
138.420000 5.487611
138.440000 5.670229
138.460000 5.748774
138.480000 5.740554
138.500000 5.975432
138.520000 6.081522
138.540000 6.352305
138.560000 6.579678
138.580000 6.802667
138.600000 7.197254
138.620000 7.110573
138.640000 7.242289
138.660000 7.398244
138.680000 7.235679
138.700000 7.511308
138.720000 7.592233
138.740000 7.752138
138.760000 8.164103
138.780000 8.270094
138.800000 8.464615
138.820000 8.651966
138.840000 8.557373
138.860000 8.662986
138.880000 8.662118
138.900000 8.611538
138.920000 8.771289
138.940000 8.907429
138.960000 9.105283
138.980000 9.157375
139.000000 9.249545
139.020000 9.387493
139.040000 9.249896
139.060000 9.247641
139.080000 9.245975
139.100000 9.250946
139.120000 9.506143
139.140000 9.520763
139.160000 9.803561
139.180000 9.888533
139.200000 9.724302
139.220000 9.709780
139.240000 9.437023
139.260000 9.123473
139.280000 9.004557
139.300000 8.774803
139.320000 8.696034
139.340000 8.705739
139.360000 8.622083
139.380000 8.754358
139.400000 8.643872
139.420000 8.374741
139.440000 8.270038
139.460000 8.158403
139.480000 7.709217
139.500000 7.367941
139.520000 7.299381
139.540000 6.911838
139.560000 6.390114
139.580000 5.894381
139.600000 5.436681
139.620000 4.800088
139.640000 3.799519
139.660000 3.033157
139.680000 2.461890
139.700000 1.826011
139.720000 1.131136
139.740000 0.660161
139.760000 0.460585
139.780000 -0.018863
139.800000 -0.570833
139.820000 -0.998566
139.840000 -1.547722
139.860000 -2.133413
139.880000 -2.595188
139.900000 -3.085320
139.920000 -3.364295
139.940000 -3.750774
139.960000 -3.964059
139.980000 -3.962995
140.000000 -4.608438
140.020000 -4.955371
140.040000 -5.155941
140.060000 -5.740848
140.080000 -6.210913
140.100000 -6.741655
140.120000 -6.967963
140.140000 -7.107829
140.160000 -7.689823
140.180000 -7.971122
140.200000 -8.114041
140.220000 -8.637710
140.240000 -9.116219
140.260000 -9.600960
140.280000 -9.916568
140.300000 -10.234680
140.320000 -10.707140
140.340000 -10.800010
140.360000 -11.056720
140.380000 -11.377650
140.400000 -11.605570
140.420000 -12.057670
140.440000 -12.455730
140.460000 -12.844280
140.480000 -12.857550
140.500000 -12.763030
140.520000 -12.831100
140.540000 -12.536050
140.560000 -12.010630
140.580000 -11.709890
140.600000 -11.505220
140.620000 -11.239900
140.640000 -10.938090
140.660000 -10.843390
140.680000 -10.985860
140.700000 -10.652080
140.720000 -10.064790
140.740000 -9.323035
140.760000 -8.475369
140.780000 -7.882187
140.800000 -7.240567
140.820000 -6.817189
140.840000 -6.429758
140.860000 -6.150208
140.880000 -5.902965
140.900000 -5.427397
140.920000 -4.999272
140.940000 -4.378825
140.960000 -3.701664
140.980000 -2.911720
141.000000 -2.164444
141.020000 -1.721742
141.040000 -1.195495
141.060000 -0.839726
141.080000 -0.585565
141.100000 -0.185671
141.120000 0.187211
141.140000 0.659054
141.160000 1.215940
141.180000 1.778890
141.200000 2.247764
141.220000 2.632801
141.240000 2.913526
141.260000 3.215705
141.280000 3.391251
141.300000 3.593740
141.320000 3.942382
141.340000 4.336702
141.360000 4.700510
141.380000 5.023148
141.400000 5.413141
141.420000 5.572850
141.440000 5.677063
141.460000 5.745861
141.480000 5.763407
141.500000 5.953461
141.520000 6.089868
141.540000 6.349490
141.560000 6.664790
141.580000 6.881002
141.600000 7.148060
141.620000 7.270464
141.640000 7.276765
141.660000 7.338380
141.680000 7.406100
141.700000 7.486130
141.720000 7.625113
141.740000 7.841591
141.760000 8.131797
141.780000 8.331303
141.800000 8.447629
141.820000 8.525529
141.840000 8.515881
141.860000 8.609536
141.880000 8.432743
141.900000 8.560622
141.920000 8.666655
141.940000 8.790263
141.960000 9.105283
141.980000 9.012370
142.000000 9.220671
142.020000 9.339587
142.040000 9.126526
142.060000 9.187483
142.080000 9.137603
142.100000 9.213361
142.120000 9.477982
142.140000 9.561709
142.160000 9.730253
142.180000 9.891418
142.200000 9.768538
142.220000 9.603088
142.240000 9.361950
142.260000 9.125994
142.280000 8.934638
142.300000 8.713721
142.320000 8.700221
142.340000 8.657707
142.360000 8.744080
142.380000 8.737498
142.400000 8.514803
142.420000 8.507521
142.440000 8.276620
142.460000 7.993023
142.480000 7.729410
142.500000 7.339584
142.520000 7.283291
142.540000 6.889866
142.560000 6.318739
142.580000 5.971189
142.600000 5.392570
142.620000 4.643376
142.640000 3.801326
142.660000 2.973643
142.680000 2.319406
142.700000 1.754174
142.720000 1.092487
142.740000 0.725206
142.760000 0.389728
142.780000 -0.038005
142.800000 -0.486435
142.820000 -0.974900
142.840000 -1.562314
142.860000 -2.135345
142.880000 -2.490247
142.900000 -2.973755
142.920000 -3.362432
142.940000 -3.610418
142.960000 -3.733521
142.980000 -3.989699
143.000000 -4.507263
143.020000 -4.824496
143.040000 -5.204449
143.060000 -5.644127
143.080000 -6.351423
143.100000 -6.755952
143.120000 -6.806280
143.140000 -7.283907
143.160000 -7.705478
143.180000 -7.896204
143.200000 -8.226334
143.220000 -8.707041
143.240000 -9.142574
143.260000 -9.640127
143.280000 -9.922435
143.300000 -10.327570
143.320000 -10.649530
143.340000 -10.666060
143.360000 -11.110350
143.380000 -11.264100
143.400000 -11.511230
143.420000 -11.985830
143.440000 -12.383480
143.460000 -12.923220
143.480000 -12.790110
143.500000 -12.677600
143.520000 -12.856000
143.540000 -12.499030
143.560000 -11.924370
143.580000 -11.661680
143.600000 -11.465480
143.620000 -11.200940
143.640000 -10.870440
143.660000 -10.743730
143.680000 -10.921830
143.700000 -10.551860
143.720000 -10.042500
143.740000 -9.235808
143.760000 -8.301812
143.780000 -7.746732
143.800000 -7.044099
143.820000 -6.748614
143.840000 -6.296530
143.860000 -5.913846
143.880000 -5.824714
143.900000 -5.379449
143.920000 -4.873830
143.940000 -4.271937
143.960000 -3.739025
143.980000 -2.884469
144.000000 -2.210081
144.020000 -1.750631
144.040000 -1.276365
144.060000 -0.993427
144.080000 -0.605800
144.100000 -0.376130
144.120000 0.131422
144.140000 0.557740
144.160000 1.070781
144.180000 1.711505
144.200000 2.130542
144.220000 2.612468
144.240000 2.789275
144.260000 3.184169
144.280000 3.348961
144.300000 3.562414
144.320000 3.869564
144.340000 4.272035
144.360000 4.757896
144.380000 4.903013
144.400000 5.385583
144.420000 5.555345
144.440000 5.632378
144.460000 5.717070
144.480000 5.770969
144.500000 6.016588
144.520000 6.051709
144.540000 6.457148
144.560000 6.685865
144.580000 6.969405
144.600000 7.192619
144.620000 7.266711
144.640000 7.467771
144.660000 7.308553
144.680000 7.462632
144.700000 7.560922
144.720000 7.721764
144.740000 7.877776
144.760000 8.157241
144.780000 8.467976
144.800000 8.503194
144.820000 8.585576
144.840000 8.540653
144.860000 8.661978
144.880000 8.504916
144.900000 8.487496
144.920000 8.745872
144.940000 8.805933
144.960000 8.989111
144.980000 9.098183
145.000000 9.181587
145.020000 9.197607
145.040000 9.218514
145.060000 9.077934
145.080000 9.074825
145.100000 9.273211
145.120000 9.250050
145.140000 9.578751
145.160000 9.751552
145.180000 9.737815
145.200000 9.820995
145.220000 9.674240
145.240000 9.373951
145.260000 9.139409
145.280000 9.058512
145.300000 8.783976
145.320000 8.783177
145.340000 8.774201
145.360000 8.753924
145.380000 8.854917
145.400000 8.716101
145.420000 8.487146
145.440000 8.366115
145.460000 8.179422
145.480000 7.703238
145.500000 7.512820
145.520000 7.262412
145.540000 6.794209
145.560000 6.501035
145.580000 5.859835
145.600000 5.320047
145.620000 4.727046
145.640000 3.742302
145.660000 3.045214
145.680000 2.402418
145.700000 1.692447
145.720000 1.198100
145.740000 0.710937
145.760000 0.314516
145.780000 0.053535
145.800000 -0.525084
145.820000 -1.064270
145.840000 -1.461265
145.860000 -2.072302
145.880000 -2.571550
145.900000 -3.000977
145.920000 -3.328656
145.940000 -3.591065
145.960000 -3.835858
145.980000 -4.068650
146.000000 -4.481889
146.020000 -4.798099
146.040000 -5.264005
146.060000 -5.843899
146.080000 -6.216514
146.100000 -6.711365
146.120000 -7.045724
146.140000 -7.293877
146.160000 -7.692273
146.180000 -7.967663
146.200000 -8.261958
146.220000 -8.737694
146.240000 -9.176000
146.260000 -9.603453
146.280000 -9.996219
146.300000 -10.258920
146.320000 -10.584350
146.340000 -10.833960
146.360000 -10.989170
146.380000 -11.194490
146.400000 -11.516000
146.420000 -11.941010
146.440000 -12.376960
146.460000 -12.647950
146.480000 -12.646290
146.500000 -12.736730
146.520000 -12.685730
146.540000 -12.319840
146.560000 -11.964290
146.580000 -11.681780
146.600000 -11.411820
146.620000 -11.175370
146.640000 -10.940450
146.660000 -10.912610
146.680000 -10.943460
146.700000 -10.643030
146.720000 -10.064750
146.740000 -9.262625
146.760000 -8.428206
146.780000 -7.766197
146.800000 -7.279636
146.820000 -6.789098
146.840000 -6.374752
146.860000 -6.221220
146.880000 -5.848548
146.900000 -5.445993
146.920000 -4.991612
146.940000 -4.377886
146.960000 -3.708483
146.980000 -2.889287
147.000000 -2.226353
147.020000 -1.774661
147.040000 -1.282148
147.060000 -0.932526
147.080000 -0.714844
147.100000 -0.324920
147.120000 0.137737
147.140000 0.571757
147.160000 1.140168
147.180000 1.762674
147.200000 2.249025
147.220000 2.596350
147.240000 2.929980
147.260000 3.204404
147.280000 3.409358
147.300000 3.606539
147.320000 3.942172
147.340000 4.426114
147.360000 4.717566
147.380000 5.080029
147.400000 5.480301
147.420000 5.564462
147.440000 5.701022
147.460000 5.747150
147.480000 5.800418
147.500000 5.984367
147.520000 6.095735
147.540000 6.430934
147.560000 6.734401
147.580000 6.901517
147.600000 7.173518
147.620000 7.294367
147.640000 7.306816
147.660000 7.339542
147.680000 7.396872
147.700000 7.532719
147.720000 7.669700
147.740000 7.892913
147.760000 8.224317
147.780000 8.399555
147.800000 8.530991
147.820000 8.622433
147.840000 8.642626
147.860000 8.625303
147.880000 8.544322
147.900000 8.675295
147.920000 8.794828
147.940000 8.905091
147.960000 9.101166
147.980000 9.198895
148.000000 9.289749
148.020000 9.265859
148.040000 9.154715
148.060000 9.141944
148.080000 9.099401
148.100000 9.136608
148.120000 9.311328
148.140000 9.492476
148.160000 9.650910
148.180000 9.697947
148.200000 9.613437
148.220000 9.458924
148.240000 9.199091
148.260000 9.001700
148.280000 8.802796
148.300000 8.632935
148.320000 8.637948
148.340000 8.678768
148.360000 8.704590
148.380000 8.683557
148.400000 8.600419
148.420000 8.454938
148.440000 8.264647
148.460000 7.956349
148.480000 7.610339
148.500000 7.426377
148.520000 7.138258
148.540000 6.694547
148.560000 6.282428
148.580000 5.816942
148.600000 5.232008
148.620000 4.491706
148.640000 3.644432
148.660000 2.902380
148.680000 2.302363
148.700000 1.651011
148.720000 1.133783
148.740000 0.712743
148.760000 0.375066
148.780000 0.052275
148.800000 -0.490524
148.820000 -1.017597
148.840000 -1.512196
148.860000 -2.004708
148.880000 -2.540043
148.900000 -2.992183
148.920000 -3.274169
148.940000 -3.488169
148.960000 -3.722935
148.980000 -4.072669
149.000000 -4.433046
149.020000 -4.770821
149.040000 -5.218873
149.060000 -5.804913
149.080000 -6.290060
149.100000 -6.603119
149.120000 -6.913602
149.140000 -7.240847
149.160000 -7.576129
149.180000 -7.856603
149.200000 -8.117401
149.220000 -8.633775
149.240000 -9.158075
149.260000 -9.521953
149.280000 -9.846285
149.300000 -10.203240
149.320000 -10.469980
149.340000 -10.676320
149.360000 -10.817770
149.380000 -11.019820
149.400000 -11.438060
149.420000 -11.768890
149.440000 -12.222670
149.460000 -12.638220
149.480000 -12.733410
149.500000 -12.743250
149.520000 -12.666950
149.540000 -12.418720
149.560000 -12.012730
149.580000 -11.624100
149.600000 -11.484200
149.620000 -11.252770
149.640000 -10.897150
149.660000 -10.896030
149.680000 -11.008750
149.700000 -10.773240
149.720000 -10.229750
149.740000 -9.435748
149.760000 -8.661516
149.780000 -7.926381
149.800000 -7.254374
149.820000 -6.851819
149.840000 -6.394847
149.860000 -6.057380
149.880000 -5.740680
149.900000 -5.364213
149.920000 -4.877583
149.940000 -4.249335
149.960000 -3.628216
149.980000 -2.877454
150.000000 -2.172538
150.020000 -1.655618
150.040000 -1.243597
150.060000 -0.881162
150.080000 -0.583002
150.100000 -0.300918
150.120000 0.082984
150.140000 0.590466
150.160000 1.072742
150.180000 1.632498
150.200000 2.173126
150.220000 2.565375
150.240000 2.907099
150.260000 3.154510
150.280000 3.397931
150.300000 3.638635
150.320000 3.841796
150.340000 4.293446
150.360000 4.656007
150.380000 5.000910
150.400000 5.341332
150.420000 5.537071
150.440000 5.724086
150.460000 5.745609
150.480000 5.808694
150.500000 5.998216
150.520000 6.116950
150.540000 6.375341
150.560000 6.697964
150.580000 6.926639
150.600000 7.156098
150.620000 7.311158
150.640000 7.379676
150.660000 7.414390
150.680000 7.406730
150.700000 7.555446
150.720000 7.695074
150.740000 7.873211
150.760000 8.154426
150.780000 8.357867
150.800000 8.570466
150.820000 8.578126
150.840000 8.606847
150.860000 8.660592
150.880000 8.554614
150.900000 8.616397
150.920000 8.714589
150.940000 8.855771
150.960000 9.034524
150.980000 9.152362
151.000000 9.260482
151.020000 9.291962
151.040000 9.222477
151.060000 9.173913
151.080000 9.191656
151.100000 9.174557
151.120000 9.333734
151.140000 9.556751
151.160000 9.664213
151.180000 9.756383
151.200000 9.704277
151.220000 9.565237
151.240000 9.323763
151.260000 9.092652
151.280000 8.827260
151.300000 8.734726
151.320000 8.668532
151.340000 8.583027
151.360000 8.725483
151.380000 8.672299
151.400000 8.589427
151.420000 8.492748
151.440000 8.267629
151.460000 8.085250
151.480000 7.683899
151.500000 7.403244
151.520000 7.204788
151.540000 6.807050
151.560000 6.343203
151.580000 5.901551
151.600000 5.368765
151.620000 4.636248
151.640000 3.794380
151.660000 3.009701
151.680000 2.378752
151.700000 1.710833
151.720000 1.158597
151.740000 0.679107
151.760000 0.343124
151.780000 0.061475
151.800000 -0.496405
151.820000 -0.944065
151.840000 -1.463198
151.860000 -2.016135
151.880000 -2.483147
151.900000 -3.010738
151.920000 -3.347589
151.940000 -3.574667
151.960000 -3.849693
151.980000 -4.098883
152.000000 -4.424966
152.020000 -4.820057
152.040000 -5.239808
152.060000 -5.741240
152.080000 -6.251943
152.100000 -6.674004
152.120000 -7.046900
152.140000 -7.338884
152.160000 -7.634397
152.180000 -7.936968
152.200000 -8.243530
152.220000 -8.636394
152.240000 -9.054143
152.260000 -9.543294
152.280000 -9.914523
152.300000 -10.250460
152.320000 -10.564850
152.340000 -10.776640
152.360000 -11.022890
152.380000 -11.231180
152.400000 -11.486810
152.420000 -11.897270
152.440000 -12.339050
152.460000 -12.660370
152.480000 -12.688440
152.500000 -12.687780
152.520000 -12.670430
152.540000 -12.416250
152.560000 -11.995870
152.580000 -11.662450
152.600000 -11.462920
152.620000 -11.204740
152.640000 -10.917260
152.660000 -10.861430
152.680000 -10.897360
152.700000 -10.703010
152.720000 -10.236770
152.740000 -9.525860
152.760000 -8.615865
152.780000 -7.928762
152.800000 -7.462478
152.820000 -6.968047
152.840000 -6.459137
152.860000 -6.204429
152.880000 -5.948462
152.900000 -5.525154
152.920000 -5.000658
152.940000 -4.424182
152.960000 -3.828506
152.980000 -2.957399
153.000000 -2.197548
153.020000 -1.780220
153.040000 -1.258272
153.060000 -0.832542
153.080000 -0.557516
153.100000 -0.274536
153.120000 0.177283
153.140000 0.705294
153.160000 1.168819
153.180000 1.753109
153.200000 2.320582
153.220000 2.734843
153.240000 3.029068
153.260000 3.315325
153.280000 3.577440
153.300000 3.749485
153.320000 3.964605
153.340000 4.456725
153.360000 4.754927
153.380000 5.026550
153.400000 5.426094
153.420000 5.595437
153.440000 5.724996
153.460000 5.747038
153.480000 5.784917
153.500000 5.980712
153.520000 6.041598
153.540000 6.285537
153.560000 6.630804
153.580000 6.856888
153.600000 7.049561
153.620000 7.219954
153.640000 7.327149
153.660000 7.313706
153.680000 7.363810
153.700000 7.479842
153.720000 7.621654
153.740000 7.795982
153.760000 8.097222
153.780000 8.353848
153.800000 8.525011
153.820000 8.579176
153.840000 8.659822
153.860000 8.726954
153.880000 8.582929
153.900000 8.682689
153.920000 8.824375
153.940000 8.899013
153.960000 9.069126
153.980000 9.179333
154.000000 9.306651
154.020000 9.310138
154.040000 9.177820
154.060000 9.170777
154.080000 9.182063
154.100000 9.136090
154.120000 9.257471
154.140000 9.499183
154.160000 9.620103
154.180000 9.660180
154.200000 9.642662
154.220000 9.519712
154.240000 9.305587
154.260000 9.030267
154.280000 8.831713
154.300000 8.716815
154.320000 8.631451
154.340000 8.618232
154.360000 8.691917
154.380000 8.683837
154.400000 8.593250
154.420000 8.470412
154.440000 8.341539
154.460000 8.109741
154.480000 7.722955
154.500000 7.518897
154.520000 7.307545
154.540000 6.864450
154.560000 6.378743
154.580000 5.929781
154.600000 5.434902
154.620000 4.669647
154.640000 3.765435
154.660000 3.053098
154.680000 2.402011
154.700000 1.735899
154.720000 1.130786
154.740000 0.636369
154.760000 0.375514
154.780000 -0.010951
154.800000 -0.528529
154.820000 -1.015104
154.840000 -1.527557
154.860000 -1.972304
154.880000 -2.470166
154.900000 -2.991609
154.920000 -3.293410
154.940000 -3.543930
154.960000 -3.760856
154.980000 -4.058904
155.000000 -4.484844
155.020000 -4.781841
155.040000 -5.179901
155.060000 -5.741520
155.080000 -6.226275
155.100000 -6.634235
155.120000 -6.927269
155.140000 -7.241505
155.160000 -7.614274
155.180000 -7.895742
155.200000 -8.184533
155.220000 -8.580843
155.240000 -9.073593
155.260000 -9.542944
155.280000 -9.859798
155.300000 -10.195460
155.320000 -10.499770
155.340000 -10.738760
155.360000 -10.927040
155.380000 -11.142940
155.400000 -11.465960
155.420000 -11.834540
155.440000 -12.280250
155.460000 -12.682850
155.480000 -12.789230
155.500000 -12.789340
155.520000 -12.719750
155.540000 -12.571000
155.560000 -12.175280
155.580000 -11.721170
155.600000 -11.508180
155.620000 -11.264780
155.640000 -10.946350
155.660000 -10.745850
155.680000 -10.796180
155.700000 -10.747020
155.720000 -10.257910
155.740000 -9.421969
155.760000 -8.628300
155.780000 -7.893473
155.800000 -7.274693
155.820000 -6.785191
155.840000 -6.338134
155.860000 -6.025887
155.880000 -5.642656
155.900000 -5.310259
155.920000 -4.900086
155.940000 -4.272637
155.960000 -3.654290
155.980000 -2.858129
156.000000 -2.224827
156.020000 -1.612726
156.040000 -1.094573
156.060000 -0.842653
156.080000 -0.480792
156.100000 -0.193681
156.120000 0.184186
156.140000 0.627407
156.160000 1.105426
156.180000 1.725453
156.200000 2.228174
156.220000 2.596308
156.240000 3.005991
156.260000 3.201015
156.280000 3.405521
156.300000 3.617924
156.320000 3.824949
156.340000 4.206191
156.360000 4.521463
156.380000 4.914845
156.400000 5.247944
156.420000 5.414794
156.440000 5.628471
156.460000 5.699342
156.480000 5.737067
156.500000 5.858644
156.520000 6.003103
156.540000 6.303769
156.560000 6.526423
156.580000 6.798788
156.600000 7.117589
156.620000 7.222726
156.640000 7.317067
156.660000 7.381524
156.680000 7.386384
156.700000 7.506855
156.720000 7.611376
156.740000 7.821244
156.760000 8.120076
156.780000 8.302302
156.800000 8.538749
156.820000 8.645538
156.840000 8.644992
156.860000 8.661110
156.880000 8.627684
156.900000 8.657623
156.920000 8.728060
156.940000 8.874353
156.960000 9.064505
156.980000 9.188071
157.000000 9.280003
157.020000 9.310558
157.040000 9.302366
157.060000 9.222477
157.080000 9.168732
157.100000 9.211946
157.120000 9.311748
157.140000 9.539933
157.160000 9.709556
157.180000 9.779951
157.200000 9.809260
157.220000 9.681115
157.240000 9.474762
157.260000 9.228526
157.280000 8.962574
157.300000 8.835998
157.320000 8.718804
157.340000 8.681639
157.360000 8.712222
157.380000 8.679763
157.400000 8.661152
157.420000 8.487846
157.440000 8.288592
157.460000 8.120944
157.480000 7.711570
157.500000 7.455112
157.520000 7.208709
157.540000 6.759817
157.560000 6.377371
157.580000 5.893667
157.600000 5.357590
157.620000 4.708744
157.640000 3.811730
157.660000 3.074299
157.680000 2.439554
157.700000 1.732594
157.720000 1.188284
157.740000 0.664880
157.760000 0.328393
157.780000 0.050048
157.800000 -0.497498
157.820000 -1.000372
157.840000 -1.475255
157.860000 -1.989416
157.880000 -2.486746
157.900000 -3.021254
157.920000 -3.369518
157.940000 -3.588727
157.960000 -3.831937
157.980000 -4.107355
158.000000 -4.466864
158.020000 -4.780595
158.040000 -5.168726
158.060000 -5.714340
158.080000 -6.218489
158.100000 -6.618817
158.120000 -6.958763
158.140000 -7.266235
158.160000 -7.610535
158.180000 -7.919058
158.200000 -8.205160
158.220000 -8.621060
158.240000 -9.082793
158.260000 -9.514965
158.280000 -9.905561
158.300000 -10.244150
158.320000 -10.538120
158.340000 -10.819530
158.360000 -11.060940
158.380000 -11.239870
158.400000 -11.573240
158.420000 -11.946990
158.440000 -12.396470
158.460000 -12.801230
158.480000 -12.773160
158.500000 -12.824390
158.520000 -12.814090
158.540000 -12.529290
158.560000 -12.094230
158.580000 -11.740870
158.600000 -11.538200
158.620000 -11.249770
158.640000 -10.912110
158.660000 -10.878020
158.680000 -11.004320
158.700000 -10.742210
158.720000 -10.074550
158.740000 -9.351812
158.760000 -8.618498
158.780000 -7.856995
158.800000 -7.235259
158.820000 -6.804824
158.840000 -6.439392
158.860000 -6.090316
158.880000 -5.754011
158.900000 -5.458792
158.920000 -4.947277
158.940000 -4.291080
158.960000 -3.699577
158.980000 -2.912196
159.000000 -2.169948
159.020000 -1.613132
159.040000 -1.250431
159.060000 -0.876891
159.080000 -0.492218
159.100000 -0.238799
159.120000 0.133270
159.140000 0.670551
159.160000 1.221276
159.180000 1.764648
159.200000 2.223104
159.220000 2.689739
159.240000 3.035608
159.260000 3.177952
159.280000 3.410408
159.300000 3.688865
159.320000 3.899783
159.340000 4.277818
159.360000 4.699964
159.380000 5.025402
159.400000 5.332734
159.420000 5.542952
159.440000 5.711637
159.460000 5.704005
159.480000 5.782088
159.500000 5.947860
159.520000 6.133166
159.540000 6.369151
159.560000 6.627583
159.580000 6.987330
159.600000 7.141507
159.620000 7.205922
159.640000 7.309953
159.660000 7.348967
159.680000 7.337526
159.700000 7.398076
159.720000 7.599921
159.740000 7.831453
159.760000 8.076960
159.780000 8.302036
159.800000 8.520782
159.820000 8.575409
159.840000 8.570284
159.860000 8.618512
159.880000 8.570704
159.900000 8.638229
159.920000 8.737358
159.940000 8.951834
159.960000 9.114007
159.980000 9.200422
160.000000 9.360830
160.020000 9.350244
160.040000 9.278939
160.060000 9.184682
160.080000 9.190535
160.100000 9.247417
160.120000 9.317546
160.140000 9.503861
160.160000 9.699012
160.180000 9.731513
160.200000 9.632580
160.220000 9.506997
160.240000 9.261840
160.260000 9.008436
160.280000 8.800177
160.300000 8.662846
160.320000 8.652134
160.340000 8.627992
160.360000 8.683473
160.380000 8.710318
160.400000 8.618316
160.420000 8.454364
160.440000 8.259269
160.460000 8.037442
160.480000 7.638458
160.500000 7.417933
160.520000 7.216635
160.540000 6.840168
160.560000 6.369473
160.580000 5.909995
160.600000 5.387249
160.620000 4.634106
160.640000 3.727808
160.660000 2.922082
160.680000 2.331659
160.700000 1.676707
160.720000 1.052493
160.740000 0.639856
160.760000 0.370011
160.780000 0.011987
160.800000 -0.505255
160.820000 -1.040310
160.840000 -1.519715
160.860000 -2.010127
160.880000 -2.576675
160.900000 -3.019378
160.920000 -3.286030
160.940000 -3.551940
160.960000 -3.745788
160.980000 -4.021361
161.000000 -4.385406
161.020000 -4.722915
161.040000 -5.152034
161.060000 -5.675326
161.080000 -6.187499
161.100000 -6.586749
161.120000 -6.880638
161.140000 -7.168953
161.160000 -7.518141
161.180000 -7.833693
161.200000 -8.093442
161.220000 -8.524339
161.240000 -9.064799
161.260000 -9.524544
161.280000 -9.886601
161.300000 -10.216950
161.320000 -10.522060
161.340000 -10.810260
161.360000 -10.979200
161.380000 -11.192960
161.400000 -11.559440
161.420000 -11.964590
161.440000 -12.451700
161.460000 -12.840010
161.480000 -12.884040
161.500000 -12.901400
161.520000 -12.814130
161.540000 -12.601800
161.560000 -12.152220
161.580000 -11.697500
161.600000 -11.510120
161.620000 -11.254350
161.640000 -10.959870
161.660000 -10.865870
161.680000 -10.910230
161.700000 -10.757440
161.720000 -10.130900
161.740000 -9.257289
161.760000 -8.495016
161.780000 -7.796486
161.800000 -7.134729
161.820000 -6.652439
161.840000 -6.280356
161.860000 -6.009601
161.880000 -5.625292
161.900000 -5.281958
161.920000 -4.845431
161.940000 -4.202648
161.960000 -3.567848
161.980000 -2.791165
162.000000 -2.147892
162.020000 -1.629166
162.040000 -1.180330
162.060000 -0.939234
162.080000 -0.638455
162.100000 -0.294813
162.120000 0.048970
162.140000 0.522060
162.160000 1.079113
162.180000 1.667045
162.200000 2.139994
162.220000 2.516755
162.240000 2.885156
162.260000 3.110722
162.280000 3.251610
162.300000 3.535416
162.320000 3.845716
162.340000 4.220727
162.360000 4.603509
162.380000 5.006315
162.400000 5.342564
162.420000 5.494585
162.440000 5.684204
162.460000 5.745091
162.480000 5.789986
162.500000 5.937553
162.520000 6.114640
162.540000 6.398250
162.560000 6.641741
162.580000 6.902959
162.600000 7.141871
162.620000 7.230554
162.640000 7.255704
162.660000 7.311003
162.680000 7.358839
162.700000 7.440983
162.720000 7.611390
162.740000 7.875801
162.760000 8.154524
162.780000 8.334566
162.800000 8.519018
162.820000 8.659416
162.840000 8.631675
162.860000 8.601792
162.880000 8.615655
162.900000 8.696679
162.920000 8.784522
162.940000 8.968750
162.960000 9.131189
162.980000 9.283938
163.000000 9.350818
163.020000 9.305265
163.040000 9.286780
163.060000 9.195170
163.080000 9.166912
163.100000 9.196501
163.120000 9.331661
163.140000 9.533016
163.160000 9.693368
163.180000 9.770709
163.200000 9.723055
163.220000 9.534976
163.240000 9.356405
163.260000 9.135684
163.280000 8.875039
163.300000 8.776694
163.320000 8.743142
163.340000 8.756543
163.360000 8.802544
163.380000 8.714631
163.400000 8.711074
163.420000 8.569780
163.440000 8.272811
163.460000 8.059077
163.480000 7.705562
163.500000 7.466245
163.520000 7.202687
163.540000 6.786353
163.560000 6.369165
163.580000 5.917192
163.600000 5.310987
163.620000 4.582952
163.640000 3.764945
163.660000 2.990657
163.680000 2.334949
163.700000 1.730620
163.720000 1.170471
163.740000 0.701121
163.760000 0.382726
163.780000 0.063785
163.800000 -0.488619
163.820000 -1.039652
163.840000 -1.512055
163.860000 -2.027267
163.880000 -2.513786
163.900000 -3.048953
163.920000 -3.341063
163.940000 -3.497187
163.960000 -3.789619
163.980000 -4.092708
164.000000 -4.422109
164.020000 -4.778789
164.040000 -5.212711
164.060000 -5.767650
164.080000 -6.281294
164.100000 -6.598232
164.120000 -6.954856
164.140000 -7.294872
164.160000 -7.571032
164.180000 -7.942275
164.200000 -8.244846
164.220000 -8.652624
164.240000 -9.173619
164.260000 -9.590611
164.280000 -9.964137
164.300000 -10.273610
164.320000 -10.564480
164.340000 -10.828370
164.360000 -11.040880
164.380000 -11.171830
164.400000 -11.556030
164.420000 -12.015320
164.440000 -12.438920
164.460000 -12.767400
164.480000 -12.764850
164.500000 -12.853540
164.520000 -12.798840
164.540000 -12.468780
164.560000 -12.057910
164.580000 -11.760490
164.600000 -11.541810
164.620000 -11.238490
164.640000 -11.008020
164.660000 -10.985470
164.680000 -11.014920
164.700000 -10.731680
164.720000 -10.130410
164.740000 -9.336156
164.760000 -8.492159
164.780000 -7.821566
164.800000 -7.248338
164.820000 -6.765824
164.840000 -6.359923
164.860000 -6.121474
164.880000 -5.791694
164.900000 -5.374842
164.920000 -4.914859
164.940000 -4.334056
164.960000 -3.638355
164.980000 -2.810980
165.000000 -2.179484
165.020000 -1.658503
165.040000 -1.183551
165.060000 -0.839236
165.080000 -0.560121
165.100000 -0.296731
165.120000 0.209070
165.140000 0.653957
165.160000 1.105622
165.180000 1.769031
165.200000 2.233649
165.220000 2.593619
165.240000 2.943732
165.260000 3.186788
165.280000 3.421569
165.300000 3.600265
165.320000 3.886004
165.340000 4.363127
165.360000 4.664073
165.380000 5.040750
165.400000 5.390162
165.420000 5.569419
165.440000 5.714326
165.460000 5.717672
165.480000 5.820275
165.500000 5.922598
165.520000 6.041122
165.540000 6.355120
165.560000 6.628115
165.580000 6.840728
165.600000 7.080690
165.620000 7.212406
165.640000 7.277872
165.660000 7.231436
165.680000 7.302840
165.700000 7.467631
165.720000 7.568301
165.740000 7.804020
165.760000 8.142089
165.780000 8.364799
165.800000 8.553746
165.820000 8.650720
165.840000 8.691203
165.860000 8.722389
165.880000 8.646925
165.900000 8.720750
165.920000 8.852634
165.940000 8.965431
165.960000 9.114245
165.980000 9.281095
166.000000 9.351532
166.020000 9.340861
166.040000 9.307197
166.060000 9.255945
166.080000 9.248033
166.100000 9.262331
166.120000 9.404395
166.140000 9.668148
166.160000 9.734160
166.180000 9.755445
166.200000 9.740546
166.220000 9.544190
166.240000 9.276040
166.260000 9.024861
166.280000 8.806801
166.300000 8.686946
166.320000 8.636268
166.340000 8.598991
166.360000 8.693360
166.380000 8.683767
166.400000 8.576068
166.420000 8.448539
166.440000 8.260152
166.460000 7.973279
166.480000 7.628320
166.500000 7.446472
166.520000 7.149517
166.540000 6.744525
166.560000 6.332630
166.580000 5.866962
166.600000 5.273612
166.620000 4.470309
166.640000 3.631241
166.660000 2.908135
166.680000 2.215837
166.700000 1.592841
166.720000 1.048670
166.740000 0.649798
166.760000 0.338699
166.780000 -0.039910
166.800000 -0.502525
166.820000 -0.972296
166.840000 -1.522376
166.860000 -2.028528
166.880000 -2.509319
166.900000 -2.963602
166.920000 -3.255531
166.940000 -3.503418
166.960000 -3.721563
166.980000 -3.989713
167.000000 -4.390699
167.020000 -4.730379
167.040000 -5.183584
167.060000 -5.736451
167.080000 -6.215352
167.100000 -6.613846
167.120000 -6.890090
167.140000 -7.243269
167.160000 -7.559535
167.180000 -7.800393
167.200000 -8.121910
167.220000 -8.571937
167.240000 -9.082947
167.260000 -9.518928
167.280000 -9.848708
167.300000 -10.228390
167.320000 -10.509610
167.340000 -10.697470
167.360000 -10.923650
167.380000 -11.116010
167.400000 -11.480410
167.420000 -11.885960
167.440000 -12.337330
167.460000 -12.781950
167.480000 -12.860500
167.500000 -12.849420
167.520000 -12.819060
167.540000 -12.593100
167.560000 -12.200100
167.580000 -11.805760
167.600000 -11.587460
167.620000 -11.316820
167.640000 -10.990610
167.660000 -10.902750
167.680000 -10.959990
167.700000 -10.744180
167.720000 -10.173750
167.740000 -9.348717
167.760000 -8.569458
167.780000 -7.840751
167.800000 -7.173504
167.820000 -6.756512
167.840000 -6.344785
167.860000 -6.048208
167.880000 -5.715432
167.900000 -5.327567
167.920000 -4.946017
167.940000 -4.271559
167.960000 -3.625682
167.980000 -2.915445
168.000000 -2.210445
168.020000 -1.693007
168.040000 -1.247028
168.060000 -0.917010
168.080000 -0.683420
168.100000 -0.341878
168.120000 0.082130
168.140000 0.498030
168.160000 1.056330
168.180000 1.632078
168.200000 2.135485
168.220000 2.570528
168.240000 2.859095
168.260000 3.133883
168.280000 3.369602
168.300000 3.581067
168.320000 3.870558
168.340000 4.265313
168.360000 4.654103
168.380000 5.030793
168.400000 5.343236
168.420000 5.564742
168.440000 5.731746
168.460000 5.758716
168.480000 5.830386
168.500000 5.945409
168.520000 6.119247
168.540000 6.387818
168.560000 6.623312
168.580000 6.899907
168.600000 7.139350
168.620000 7.279160
168.640000 7.343645
168.660000 7.336952
168.680000 7.418353
168.700000 7.530198
168.720000 7.682345
168.740000 7.897548
168.760000 8.184505
168.780000 8.438176
168.800000 8.614969
168.820000 8.693094
168.840000 8.678516
168.860000 8.726310
168.880000 8.696917
168.900000 8.681709
168.920000 8.771695
168.940000 8.938055
168.960000 9.105157
168.980000 9.184682
169.000000 9.245779
169.020000 9.273575
169.040000 9.219200
169.060000 9.143904
169.080000 9.093030
169.100000 9.161142
169.120000 9.294692
169.140000 9.506395
169.160000 9.652786
169.180000 9.737157
169.200000 9.727242
169.220000 9.586074
169.240000 9.363449
169.260000 9.088157
169.280000 8.888959
169.300000 8.781679
169.320000 8.713063
169.340000 8.664597
169.360000 8.722655
169.380000 8.772913
169.400000 8.646757
169.420000 8.462906
169.440000 8.294054
169.460000 8.053378
169.480000 7.706781
169.500000 7.395528
169.520000 7.147458
169.540000 6.788552
169.560000 6.333541
169.580000 5.837093
169.600000 5.293482
169.620000 4.604587
169.640000 3.737442
169.660000 2.974973
169.680000 2.333521
169.700000 1.685235
169.720000 1.165038
169.740000 0.752639
169.760000 0.375262
169.780000 0.071067
169.800000 -0.422622
169.820000 -0.907082
169.840000 -1.433539
169.860000 -2.030124
169.880000 -2.478050
169.900000 -2.895378
169.920000 -3.275331
169.940000 -3.560594
169.960000 -3.754891
169.980000 -3.953640
170.000000 -4.334798
170.020000 -4.809946
170.040000 -5.222527
170.060000 -5.661435
170.080000 -6.213602
170.100000 -6.699715
170.120000 -7.013530
170.140000 -7.231982
170.160000 -7.551651
170.180000 -7.943297
170.200000 -8.221698
170.220000 -8.635946
170.240000 -9.086826
170.260000 -9.575488
170.280000 -9.999636
170.300000 -10.272370
170.320000 -10.554550
170.340000 -10.831550
170.360000 -11.009730
170.380000 -11.247760
170.400000 -11.562500
170.420000 -11.916790
170.440000 -12.409410
170.460000 -12.812620
170.480000 -12.816690
170.500000 -12.826920
170.520000 -12.787020
170.540000 -12.556500
170.560000 -12.157020
170.580000 -11.687030
170.600000 -11.489120
170.620000 -11.303250
170.640000 -11.020580
170.660000 -10.851400
170.680000 -10.902180
170.700000 -10.742920
170.720000 -10.147780
170.740000 -9.327180
170.760000 -8.482889
170.780000 -7.831887
170.800000 -7.258463
170.820000 -6.725845
170.840000 -6.397648
170.860000 -6.135001
170.880000 -5.778923
170.900000 -5.459730
170.920000 -4.987943
170.940000 -4.358478
170.960000 -3.720820
170.980000 -2.940217
171.000000 -2.276835
171.020000 -1.720916
171.040000 -1.236777
171.060000 -0.932960
171.080000 -0.588827
171.100000 -0.201438
171.120000 0.214224
171.140000 0.655218
171.160000 1.215716
171.180000 1.833937
171.200000 2.249697
171.220000 2.653540
171.240000 2.966445
171.260000 3.225367
171.280000 3.418586
171.300000 3.640721
171.320000 3.940309
171.340000 4.339461
171.360000 4.675500
171.380000 5.020305
171.400000 5.364227
171.420000 5.496601
171.440000 5.648762
171.460000 5.757876
171.480000 5.762917
171.500000 5.926183
171.520000 6.123350
171.540000 6.377567
171.560000 6.634501
171.580000 6.855152
171.600000 7.119703
171.620000 7.262020
171.640000 7.252693
171.660000 7.292449
171.680000 7.420384
171.700000 7.498761
171.720000 7.635938
171.740000 7.881193
171.760000 8.185304
171.780000 8.403000
171.800000 8.520698
171.820000 8.624113
171.840000 8.681541
171.860000 8.684678
171.880000 8.650453
171.900000 8.707489
171.920000 8.831643
171.940000 8.962995
171.960000 9.096321
171.980000 9.234814
172.000000 9.277020
172.020000 9.288895
172.040000 9.247011
172.060000 9.182917
172.080000 9.150276
172.100000 9.161744
172.120000 9.327880
172.140000 9.536334
172.160000 9.620411
172.180000 9.643936
172.200000 9.618184
172.220000 9.516870
172.240000 9.252864
172.260000 8.988201
172.280000 8.834598
172.300000 8.759344
172.320000 8.665451
172.340000 8.606749
172.360000 8.675127
172.380000 8.676780
172.400000 8.551002
172.420000 8.388983
172.440000 8.208829
172.460000 7.989285
172.480000 7.640307
172.500000 7.347202
172.520000 7.134701
172.540000 6.753613
172.560000 6.254520
172.580000 5.814688
172.600000 5.215358
172.620000 4.516170
172.640000 3.676892
172.660000 2.848663
172.680000 2.299101
172.700000 1.715398
172.720000 1.103227
172.740000 0.668059
172.760000 0.363429
172.780000 0.091470
172.800000 -0.409571
172.820000 -0.997068
172.840000 -1.441394
172.860000 -1.861075
172.880000 -2.405666
172.900000 -2.934097
172.920000 -3.221236
172.940000 -3.379110
172.960000 -3.629561
172.980000 -4.014373
173.000000 -4.362063
173.020000 -4.654817
173.040000 -5.124728
173.060000 -5.680255
173.080000 -6.201741
173.100000 -6.555466
173.120000 -6.901377
173.140000 -7.265829
173.160000 -7.571382
173.180000 -7.916943
173.200000 -8.263106
173.220000 -8.669344
173.240000 -9.119244
173.260000 -9.621853
173.280000 -9.984386
173.300000 -10.300750
173.320000 -10.557990
173.340000 -10.806710
173.360000 -11.085850
173.380000 -11.224940
173.400000 -11.506590
173.420000 -11.955630
173.440000 -12.372810
173.460000 -12.716550
173.480000 -12.799960
173.500000 -12.874160
173.520000 -12.839340
173.540000 -12.576840
173.560000 -12.177090
173.580000 -11.851720
173.600000 -11.615580
173.620000 -11.297030
173.640000 -11.010820
173.660000 -10.889560
173.680000 -10.924250
173.700000 -10.738750
173.720000 -10.218100
173.740000 -9.408974
173.760000 -8.577426
173.780000 -7.907505
173.800000 -7.320148
173.820000 -6.797626
173.840000 -6.344057
173.860000 -6.081480
173.880000 -5.726537
173.900000 -5.303845
173.920000 -4.881433
173.940000 -4.305797
173.960000 -3.674497
173.980000 -2.903570
174.000000 -2.200545
174.020000 -1.720258
174.040000 -1.219217
174.060000 -0.844823
174.080000 -0.566506
174.100000 -0.237161
174.120000 0.199338
174.140000 0.590886
174.160000 1.119877
174.180000 1.740156
174.200000 2.210361
174.220000 2.619932
174.240000 2.954192
174.260000 3.245406
174.280000 3.441215
174.300000 3.605293
174.320000 3.860098
174.340000 4.276306
174.360000 4.589141
174.380000 4.885536
174.400000 5.292236
174.420000 5.498282
174.440000 5.655441
174.460000 5.750986
174.480000 5.793935
174.500000 5.960071
174.520000 6.091044
174.540000 6.355876
174.560000 6.601845
174.580000 6.882066
174.600000 7.125445
174.620000 7.280798
174.640000 7.375391
174.660000 7.383709
174.680000 7.512190
174.700000 7.593815
174.720000 7.697748
174.740000 7.911580
174.760000 8.201253
174.780000 8.388703
174.800000 8.512632
174.820000 8.626802
174.840000 8.649767
174.860000 8.651868
174.880000 8.550021
174.900000 8.602996
174.920000 8.725596
174.940000 8.819754
174.960000 8.993802
174.980000 9.111570
175.000000 9.240695
175.020000 9.305839
175.040000 9.256883
175.060000 9.233274
175.080000 9.219830
175.100000 9.219900
175.120000 9.383796
175.140000 9.545479
175.160000 9.649062
175.180000 9.781309
175.200000 9.747925
175.220000 9.625312
175.240000 9.400558
175.260000 9.153987
175.280000 9.002246
175.300000 8.806003
175.320000 8.697281
175.340000 8.691455
175.360000 8.740271
175.380000 8.750774
175.400000 8.627656
175.420000 8.518696
175.440000 8.372893
175.460000 8.119348
175.480000 7.761170
175.500000 7.468583
175.520000 7.247722
175.540000 6.836051
175.560000 6.324522
175.580000 5.887981
175.600000 5.390638
175.620000 4.654033
175.640000 3.825047
175.660000 3.068712
175.680000 2.422400
175.700000 1.791269
175.720000 1.165780
175.740000 0.694189
175.760000 0.380037
175.780000 0.030695
175.800000 -0.438333
175.820000 -0.944345
175.840000 -1.435793
175.860000 -1.935671
175.880000 -2.451723
175.900000 -2.959569
175.920000 -3.341161
175.940000 -3.571615
175.960000 -3.804827
175.980000 -4.070302
176.000000 -4.461234
176.020000 -4.821667
176.040000 -5.132962
176.060000 -5.676026
176.080000 -6.240572
176.100000 -6.635341
176.120000 -6.965148
176.140000 -7.232851
176.160000 -7.654058
176.180000 -8.025259
176.200000 -8.223785
176.220000 -8.645748
176.240000 -9.154393
176.260000 -9.615215
176.280000 -9.985436
176.300000 -10.267700
176.320000 -10.634980
176.340000 -10.943410
176.360000 -11.095390
176.380000 -11.304130
176.400000 -11.629610
176.420000 -12.019800
176.440000 -12.486750
176.460000 -12.774850
176.480000 -12.811890
176.500000 -12.906370
176.520000 -12.849040
176.540000 -12.625650
176.560000 -12.159780
176.580000 -11.807230
176.600000 -11.630480
176.620000 -11.303130
176.640000 -10.969060
176.660000 -10.908990
176.680000 -10.974440
176.700000 -10.724910
176.720000 -10.121030
176.740000 -9.314171
176.760000 -8.548355
176.780000 -7.827532
176.800000 -7.205992
176.820000 -6.757576
176.840000 -6.307116
176.860000 -6.053865
176.880000 -5.738874
176.900000 -5.371817
176.920000 -4.972147
176.940000 -4.302982
176.960000 -3.699367
176.980000 -2.918260
177.000000 -2.144560
177.020000 -1.652285
177.040000 -1.193493
177.060000 -0.849850
177.080000 -0.580608
177.100000 -0.254441
177.120000 0.137723
177.140000 0.563075
177.160000 1.147730
177.180000 1.686663
177.200000 2.195140
177.220000 2.614695
177.240000 2.934027
177.260000 3.224653
177.280000 3.389067
177.300000 3.631759
177.320000 3.914641
177.340000 4.302464
177.360000 4.690217
177.380000 5.005601
177.400000 5.376747
177.420000 5.570105
177.440000 5.679947
177.460000 5.745973
177.480000 5.773980
177.500000 5.926029
177.520000 6.086213
177.540000 6.308012
177.560000 6.610443
177.580000 6.906236
177.600000 7.095702
177.620000 7.248843
177.640000 7.297434
177.660000 7.342749
177.680000 7.385655
177.700000 7.453642
177.720000 7.635349
177.740000 7.843860
177.760000 8.160686
177.780000 8.368412
177.800000 8.516903
177.820000 8.634364
177.840000 8.644712
177.860000 8.619408
177.880000 8.548019
177.900000 8.586416
177.920000 8.747819
177.940000 8.894392
177.960000 9.016740
177.980000 9.185130
178.000000 9.341015
178.020000 9.364457
178.040000 9.276362
178.060000 9.231971
178.080000 9.289483
178.100000 9.315375
178.120000 9.420569
178.140000 9.622371
178.160000 9.798786
178.180000 9.906317
178.200000 9.780441
178.220000 9.582139
178.240000 9.411985
178.260000 9.143904
178.280000 8.865839
178.300000 8.719826
178.320000 8.655145
178.340000 8.693682
178.360000 8.742288
178.380000 8.634420
178.400000 8.595644
178.420000 8.511316
178.440000 8.242970
178.460000 7.978670
178.480000 7.594922
178.500000 7.363544
178.520000 7.172916
178.540000 6.656892
178.560000 6.201657
178.580000 5.835427
178.600000 5.285655
178.620000 4.515960
178.640000 3.630317
178.660000 2.901049
178.680000 2.364076
178.700000 1.665924
178.720000 1.031474
178.740000 0.633624
178.760000 0.404347
178.780000 0.082942
178.800000 -0.530882
178.820000 -1.021336
178.840000 -1.425193
178.860000 -1.964532
178.880000 -2.507485
178.900000 -3.021660
178.920000 -3.270906
178.940000 -3.441705
178.960000 -3.763377
178.980000 -4.045741
179.000000 -4.383362
179.020000 -4.728055
179.040000 -5.145313
179.060000 -5.728469
179.080000 -6.296180
179.100000 -6.612796
179.120000 -6.923208
179.140000 -7.267341
179.160000 -7.621360
179.180000 -7.969778
179.200000 -8.174157
179.220000 -8.607617
179.240000 -9.208782
179.260000 -9.619262
179.280000 -9.936285
179.300000 -10.264960
179.320000 -10.621180
179.340000 -10.909740
179.360000 -11.012290
179.380000 -11.177110
179.400000 -11.603530
179.420000 -12.013030
179.440000 -12.416110
179.460000 -12.762470
179.480000 -12.847470
179.500000 -12.906500
179.520000 -12.819140
179.540000 -12.535060
179.560000 -12.106110
179.580000 -11.763510
179.600000 -11.521450
179.620000 -11.225920
179.640000 -10.914990
179.660000 -10.833790
179.680000 -10.911370
179.700000 -10.630100
179.720000 -10.110250
179.740000 -9.451082
179.760000 -8.523219
179.780000 -7.777316
179.800000 -7.247722
179.820000 -6.830086
179.840000 -6.381852
179.860000 -6.047452
179.880000 -5.742907
179.900000 -5.390918
179.920000 -4.928821
179.940000 -4.292914
179.960000 -3.670268
179.980000 -2.879148